LabVIEW Measurement	
Writer_Version	2
Reader_Version	2
Separator	Tab
Decimal_Separator	.
Multi_Headings	No
X_Columns	No
Time_Pref	Relative
Operator	Standard
Date	2018/11/14
Time	12:19:37.2952752113342285156
***End_of_Header***	
	
Channels	8								
Samples	1	1	1	1	1	1	1	1	
Date	2018/11/14	2018/11/14	2018/11/14	2018/11/14	2018/11/14	2018/11/14	2018/11/14	2018/11/14	
Time	12:19:37.2952752113342285156	12:19:37.2952752113342285156	12:19:37.2952752113342285156	12:19:37.2952752113342285156	12:19:37.2952752113342285156	12:19:37.2952752113342285156	12:19:37.2952752113342285156	12:19:37.2952752113342285156	
X_Dimension	Time	Time	Time	Time	Time	Time	Time	Time	
X0	0.0000000000000000E+0	0.0000000000000000E+0	0.0000000000000000E+0	0.0000000000000000E+0	0.0000000000000000E+0	0.0000000000000000E+0	0.0000000000000000E+0	0.0000000000000000E+0	
Delta_X	1.000000	1.000000	1.000000	1.000000	1.000000	1.000000	1.000000	1.000000	
***End_of_Header***									
X_Value	Temperature_1	Temperature_2	Temperature_3	Temperature_4	Temperature_5	Temperature_6	Temperature_7	Temperature_8	Comment
	22.959608	23.962171	23.886093	105.303369	23.922568	24.013303	24.031135	24.082222
	22.950083	23.958529	23.876492	105.302402	23.915583	24.019379	24.035283	24.090721
	22.975222	23.963522	23.904632	105.302953	23.941358	24.029111	24.033173	24.102585
	22.968342	23.979546	23.892471	105.299780	23.934721	24.026600	24.033158	24.101424
	22.956137	23.967233	23.899863	105.300818	23.936289	24.028397	24.033447	24.108356
	22.966213	23.974237	23.894036	105.288486	23.939928	24.032264	24.033806	24.100240
	22.948944	23.959585	23.884194	105.272495	23.929799	24.017325	24.022592	24.081010
	22.943864	23.971148	23.896905	105.275748	23.938479	24.029898	24.035758	24.095319
	22.937557	23.963164	23.893044	105.269457	23.935164	24.025668	24.031211	24.091690
	22.934216	23.971038	23.894732	105.269134	23.944662	24.028520	24.030149	24.096354
	22.935911	23.981795	23.890595	105.267148	23.940395	24.029982	24.031054	24.093594
	22.952321	23.973847	23.898916	105.263061	23.932482	24.033067	24.031354	24.096414
	22.930772	23.963157	23.887537	105.255227	23.940308	24.023938	24.020666	24.099471
	22.948220	23.956500	23.885692	105.249291	23.930452	24.028059	24.033942	24.101063
	22.930626	23.962556	23.890832	105.234164	23.933976	24.026312	24.029458	24.099558
	22.942694	23.977747	23.891588	105.252595	23.935707	24.028272	24.038461	24.112224
	22.933738	23.968206	23.906796	105.245950	23.929978	24.031938	24.033733	24.101999
	22.938790	23.960993	23.885602	105.238940	23.932040	24.020025	24.026291	24.088603
	22.932915	23.965248	23.882295	105.248930	23.926407	24.022411	24.024360	24.096293
	22.917541	23.954166	23.891379	105.236018	23.931689	24.024026	24.018779	24.094377
	22.924577	23.957520	23.890150	105.249577	23.927939	24.017528	24.021445	24.088796
	22.949111	23.971509	23.880766	105.258477	23.924925	24.038112	24.028330	24.096139
	22.940829	23.969045	23.909467	105.245882	23.938200	24.029849	24.035946	24.099401
	22.938700	23.964912	23.892501	105.251999	23.927367	24.027037	24.025170	24.097789
	22.943633	23.956683	23.894584	105.256165	23.933435	24.032875	24.035729	24.096206
	22.926256	23.976978	23.892881	105.282749	23.933739	24.036157	24.033110	24.099315
	22.947307	23.982959	23.900467	105.296005	23.940768	24.032645	24.046421	24.104607
	22.929578	23.969092	23.900348	105.291359	23.943012	24.039929	24.023393	24.103801
	22.922095	23.974287	23.896378	105.287542	23.938295	24.040024	24.038439	24.102810
	22.933565	23.964747	23.898065	105.290972	23.940116	24.030619	24.028441	24.101061
	22.921683	23.969666	23.894964	105.297187	23.943154	24.031366	24.039774	24.095441
	22.937409	23.977215	23.892202	105.305869	23.935703	24.031018	24.027620	24.109173
	22.932404	23.985017	23.900922	105.295212	23.944229	24.035877	24.044356	24.101168
	22.924668	23.967264	23.894624	105.298870	23.932385	24.027929	24.029354	24.102203
	22.912739	23.968773	23.892008	105.290096	23.928501	24.033440	24.031321	24.102795
	22.925646	23.972487	23.890223	105.279668	23.945964	24.035091	24.040533	24.111318
	22.908871	23.970275	23.889156	105.272427	23.933349	24.019729	24.032594	24.100402
	22.905292	23.974798	23.902618	105.285809	23.938027	24.029446	24.037116	24.110651
	22.901716	23.965984	23.905032	105.270111	23.933771	24.023817	24.042050	24.098862
	22.890550	23.963839	23.882032	105.264903	23.927213	24.021842	24.025930	24.099007
	22.925068	23.959762	23.905913	105.273833	23.937596	24.029932	24.027123	24.091038
	22.927705	23.979420	23.903344	105.280114	23.926936	24.036457	24.032344	24.099924
	22.890780	23.975777	23.908410	105.279344	23.932712	24.027341	24.040845	24.106590
	22.911424	23.972084	23.909070	105.259566	23.932001	24.023651	24.032341	24.103585
	22.892363	23.975935	23.892755	105.262886	23.927189	24.018153	24.030235	24.091401
	22.911955	23.976263	23.898583	105.286677	23.933447	24.034261	24.027126	24.101120
	22.895990	23.981411	23.903731	105.277287	23.931724	24.027269	24.040063	24.112451
	22.919739	23.975149	23.908011	105.295199	23.944652	24.035612	24.043653	24.116728
	22.912928	23.983276	23.904909	105.268030	23.941980	24.023548	24.035284	24.111338
	22.889984	23.974802	23.901705	105.280281	23.938792	24.031128	24.032538	24.112028
	22.907112	23.978057	23.902669	105.277754	23.945343	24.043405	24.035106	24.116886
	22.902218	23.974572	23.908809	105.289368	23.943438	24.041272	24.041244	24.121649
	22.904649	23.982473	23.897690	105.269116	23.937615	24.034762	24.047081	24.112597
	22.898979	23.962176	23.903056	105.232255	23.930353	24.023607	24.029078	24.110172
	22.885952	23.975587	23.891720	105.235719	23.928812	24.024816	24.030116	24.108920
	22.879193	23.966663	23.887607	105.230592	23.923901	24.018989	24.028295	24.110306
	22.910212	23.962330	23.897939	105.221720	23.930104	24.037104	24.037938	24.115824
	22.897533	23.974331	23.898484	105.229894	23.936243	24.032933	24.042377	24.106519
	22.884974	23.963515	23.901187	105.241312	23.929211	24.022007	24.033166	24.104181
	22.901608	23.970665	23.893214	105.235624	23.935038	24.027833	24.022904	24.105374
	22.892699	23.975995	23.898315	105.223426	23.929586	24.033379	24.042437	24.110931
	22.901932	23.990492	23.908461	105.245607	23.951173	24.038925	24.046394	24.118552
	22.890719	23.976947	23.899954	105.255461	23.943421	24.023156	24.045909	24.109592
	22.892726	23.964791	23.889630	105.245178	23.936717	24.026075	24.032838	24.102479
	22.887963	23.970484	23.907240	105.247123	23.932423	24.026822	24.035094	24.109544
	22.897909	23.974683	23.909836	105.249360	23.938222	24.027580	24.038834	24.110535
	22.869895	23.975564	23.891696	105.244984	23.936851	24.026438	24.027114	24.099734
	22.875260	23.965747	23.898378	105.252916	23.928914	24.026750	24.027379	24.107787
	22.880966	23.979048	23.897931	105.278806	23.939877	24.031984	24.044115	24.116274
	22.888822	23.987850	23.900547	105.254787	23.931905	24.041195	24.046272	24.101251
	22.891578	23.976772	23.900009	105.244247	23.938321	24.027450	24.048254	24.106440
	22.879216	23.973541	23.900673	105.244029	23.947067	24.024740	24.042732	24.104812
	22.892995	23.984116	23.899333	105.255321	23.930569	24.035507	24.040018	24.113552
	22.882479	23.978534	23.900625	105.256039	23.926950	24.025245	24.044059	24.102245
	22.894832	23.983262	23.895730	105.258338	23.930569	24.034133	24.040081	24.109492
	22.884668	23.978234	23.908804	105.252224	23.939446	24.032699	24.041239	24.106984
	22.881017	23.968681	23.894438	105.232333	23.928929	24.033639	24.034895	24.099954
	22.883028	23.982804	23.907875	105.230285	23.944914	24.034499	24.043518	24.110637
	22.873806	23.972351	23.888254	105.223643	23.924026	24.029653	24.038335	24.111640
	22.873929	23.969084	23.907215	105.217665	23.928731	24.022902	24.035985	24.112726
	22.864584	23.977937	23.887882	105.245054	23.929031	24.034886	24.029945	24.100274
	22.855896	23.969155	23.905224	105.250126	23.932737	24.024845	24.033078	24.100428
	22.864552	23.982942	23.897930	105.259642	23.927624	24.023399	24.022120	24.101383
	22.881800	23.982555	23.899147	105.272347	23.929940	24.039918	24.043268	24.117031
	22.857471	23.983278	23.900328	105.292725	23.934080	24.030770	24.037118	24.109736
	22.877884	23.987232	23.908179	105.300282	23.948489	24.046550	24.050694	24.121249
	22.872206	23.991032	23.912438	105.311855	23.934345	24.040198	24.043727	24.112220
	22.880620	23.981279	23.909787	105.314311	23.941594	24.033013	24.045658	24.114151
	22.875361	23.973884	23.894599	105.308330	23.931535	24.028226	24.025664	24.110424
	22.833185	23.973330	23.898171	105.304693	23.922911	24.026476	24.030151	24.095898
	22.854232	23.972208	23.887653	105.301750	23.924890	24.022956	24.025821	24.102106
	22.849868	23.974946	23.892683	105.301147	23.925807	24.031433	24.028788	24.105301
	22.866464	23.961716	23.898242	105.311273	23.928616	24.028514	24.042135	24.108567
	22.848637	23.979398	23.897135	105.302022	23.925265	24.021040	24.036217	24.103338
	22.864603	23.969652	23.898846	105.308633	23.935467	24.035593	24.040219	24.114669
	22.862441	23.977419	23.895843	105.287871	23.928955	24.024501	24.037675	24.102047
	22.856335	23.981618	23.899126	105.293664	23.931113	24.028949	24.041186	24.117469
	22.855500	23.983242	23.899834	105.316399	23.929592	24.033385	24.035250	24.107639
	22.871042	23.971652	23.898325	105.321814	23.930434	24.039266	24.037636	24.115293
	22.848982	23.962996	23.886230	105.298944	23.921943	24.016803	24.035625	24.102288
	22.853951	23.979671	23.894429	105.312530	23.926443	24.028175	24.036032	24.118958
	22.841042	23.980118	23.896709	105.291976	23.929375	24.027211	24.033271	24.101996
	22.838710	23.966204	23.884626	105.295585	23.917652	24.017095	24.025316	24.104349
	22.840001	23.977752	23.905801	105.313048	23.940251	24.041064	24.037091	24.111542
	22.845612	23.972774	23.900135	105.305596	23.937829	24.031311	24.038300	24.110459
	22.850399	23.978862	23.895682	105.278052	23.934356	24.026464	24.042325	24.104863
	22.837767	23.989030	23.900581	105.284843	23.927253	24.036315	24.041724	24.111364
	22.832615	23.958568	23.891885	105.261346	23.923030	24.022242	24.027990	24.106107
	22.845271	23.977514	23.898001	105.256543	23.931532	24.035553	24.047392	24.108097
	22.859115	23.982156	23.905852	105.268842	23.935032	24.036075	24.030957	24.120755
	22.837764	23.971640	23.900147	105.255034	23.925645	24.018900	24.026857	24.115281
	22.850300	23.980742	23.913833	105.265055	23.939757	24.045839	24.042601	24.109721
	22.837981	23.967247	23.898503	105.276138	23.932508	24.027365	24.034378	24.105393
	22.832085	23.965873	23.888649	105.274755	23.921813	24.033397	24.034607	24.106538
	22.835819	23.973872	23.895046	105.290146	23.933329	24.028874	24.039398	24.113390
	22.819294	23.972134	23.897432	105.280944	23.932425	24.029115	24.023685	24.116920
	22.830814	23.964079	23.892813	105.269060	23.916420	24.024110	24.039457	24.108868
	22.846879	23.979585	23.898697	105.301986	23.930386	24.032575	24.048088	24.117268
	22.822315	23.967702	23.889562	105.266653	23.928336	24.025027	24.033916	24.106764
	22.834021	23.973734	23.899033	105.262174	23.932223	24.028455	24.029867	24.114626
	22.852514	23.977400	23.912324	105.286670	23.947465	24.035447	24.045904	24.122185
	22.820573	23.966232	23.896801	105.288894	23.928660	24.023060	24.029697	24.111708
	22.840583	23.990567	23.908994	105.304343	23.940144	24.038895	24.048989	24.117940
	22.821032	23.981714	23.895785	105.287821	23.933243	24.038639	24.043345	24.114816
	22.843973	23.982196	23.911621	105.291200	23.934361	24.034717	24.036725	24.115298
	22.847046	23.975840	23.903889	105.279201	23.930094	24.025181	24.035409	24.111005
	22.829907	23.995328	23.915359	105.283162	23.939117	24.033973	24.044585	24.120867
	22.837689	23.978515	23.905648	105.291977	23.939548	24.043568	24.054807	24.120093
	22.819940	23.989959	23.907240	105.267668	23.932382	24.031363	24.041737	24.122143
	22.819904	23.977816	23.906782	105.251272	23.933721	24.040950	24.041967	24.117791
	22.817834	23.988680	23.903439	105.254317	23.942884	24.037968	24.033356	24.113992
	22.818546	23.978369	23.894960	105.247205	23.934200	24.028370	24.042291	24.115595
	22.818752	23.984915	23.907466	105.258776	23.925698	24.026055	24.040588	24.113435
	22.824990	23.975039	23.910192	105.263891	23.933524	24.032505	24.038503	24.107685
	22.824258	23.969224	23.897731	105.273102	23.921795	24.029713	24.026961	24.102330
	22.833385	23.979101	23.905088	105.273122	23.929527	24.023468	24.042335	24.113348
	22.823604	23.988878	23.912575	105.273650	23.939246	24.040517	24.044551	24.135263
	22.833021	23.977809	23.907691	105.270428	23.945433	24.038684	24.043334	24.116638
	22.829078	23.973550	23.902516	105.270708	23.941727	24.042539	24.042055	24.121314
	22.824579	23.978394	23.902090	105.283971	23.934260	24.039198	24.044607	24.125011
	22.826100	23.988029	23.912643	105.296229	23.938298	24.053315	24.052179	24.129375
	22.803796	23.983905	23.901643	105.279438	23.930484	24.028778	24.031102	24.126169
	22.828951	23.975511	23.913872	105.299659	23.942518	24.038290	24.057760	24.138391
	22.807871	23.978873	23.907151	105.304928	23.932945	24.042464	24.041649	24.126635
