LabVIEW Measurement	
Writer_Version	2
Reader_Version	2
Separator	Tab
Decimal_Separator	.
Multi_Headings	No
X_Columns	No
Time_Pref	Relative
Operator	Standard
Date	2018/11/14
Time	12:38:11.8760251998901367187
***End_of_Header***	
	
Channels	8								
Samples	1	1	1	1	1	1	1	1	
Date	2018/11/14	2018/11/14	2018/11/14	2018/11/14	2018/11/14	2018/11/14	2018/11/14	2018/11/14	
Time	12:38:11.8760251998901367187	12:38:11.8760251998901367187	12:38:11.8760251998901367187	12:38:11.8760251998901367187	12:38:11.8760251998901367187	12:38:11.8760251998901367187	12:38:11.8760251998901367187	12:38:11.8760251998901367187	
X_Dimension	Time	Time	Time	Time	Time	Time	Time	Time	
X0	0.0000000000000000E+0	0.0000000000000000E+0	0.0000000000000000E+0	0.0000000000000000E+0	0.0000000000000000E+0	0.0000000000000000E+0	0.0000000000000000E+0	0.0000000000000000E+0	
Delta_X	1.000000	1.000000	1.000000	1.000000	1.000000	1.000000	1.000000	1.000000	
***End_of_Header***									
X_Value	Temperature_1	Temperature_2	Temperature_3	Temperature_4	Temperature_5	Temperature_6	Temperature_7	Temperature_8	Comment
	23.437798	24.075567	23.985531	22.886305	23.991901	24.099346	24.118403	105.113497
	23.440175	24.087070	23.982831	22.877397	23.996338	24.101032	24.103334	105.114330
	23.429542	24.082019	23.979153	22.889328	24.002442	24.106677	24.116150	105.121631
	23.438389	24.074930	23.977791	22.848231	23.995699	24.091918	24.111581	105.107019
	23.436009	24.081959	23.974740	22.867221	24.001341	24.100078	24.120213	105.118418
	23.438572	24.065816	23.976465	22.870099	24.006651	24.099432	24.120105	105.115559
	23.434219	24.085228	23.976406	22.880833	23.991534	24.096688	24.114778	105.119854
	23.444213	24.085976	23.986548	22.866655	23.999913	24.102774	24.116671	105.135319
	23.443518	24.068181	23.979748	22.870173	23.993949	24.089252	24.120867	105.120563
	23.441340	24.077791	23.971029	22.882103	23.992918	24.097384	24.119939	105.130432
	23.439742	24.072896	23.990650	22.873293	23.993614	24.101516	24.118023	105.154663
	23.444073	24.084556	23.984670	22.883145	24.000002	24.108132	24.125100	105.166893
	23.449401	24.082121	23.986587	22.887363	24.003491	24.101999	24.124498	105.152345
	23.441310	24.084702	23.984586	22.853205	23.997242	24.101707	24.122497	105.165833
	23.458772	24.092491	23.987107	22.883750	24.006893	24.107004	24.121811	105.177096
	23.456767	24.088115	23.992124	22.890157	24.010848	24.106835	24.131407	105.173914
	23.451753	24.088754	23.991159	22.872885	23.999882	24.100453	24.116471	105.167748
	23.444710	24.083329	23.987337	22.867446	23.999950	24.095710	24.112650	105.162871
	23.449207	24.071068	23.986530	22.868015	24.002609	24.094017	24.129709	105.162768
	23.456180	24.091866	23.995189	22.893459	24.012094	24.104187	24.127600	105.173198
	23.452661	24.094797	23.996975	22.892034	24.017286	24.113271	24.135798	105.161895
	23.461037	24.076918	23.994214	22.898452	24.006636	24.100792	24.117921	105.138768
	23.440568	24.089517	23.991922	22.886510	24.015517	24.097301	24.136016	105.133631
	23.458409	24.079293	23.984676	22.882691	23.995075	24.098854	24.116173	105.137458
	23.448917	24.085732	23.988595	22.894199	24.009652	24.109075	24.123986	105.140839
	23.453391	24.074327	23.987728	22.887588	24.003123	24.110564	24.116705	105.154317
	23.450647	24.083515	23.987523	22.904607	24.013212	24.102097	24.124059	105.140507
	23.449856	24.069469	23.976682	22.876517	24.002342	24.090313	24.101769	105.138271
	23.462623	24.082600	23.993940	22.890829	24.002263	24.113141	24.124519	105.146041
	23.448905	24.080177	23.984414	22.880592	24.001620	24.096922	24.123012	105.140987
	23.453575	24.089088	23.994930	22.884932	24.020948	24.118079	24.131006	105.142547
	23.462997	24.091704	23.990215	22.880206	24.010197	24.110994	24.130415	105.124255
	23.453098	24.077960	23.991820	22.881125	24.009245	24.113708	24.125377	105.131566
	23.456868	24.091886	23.996584	22.890953	24.008887	24.105103	24.137240	105.119867
	23.451806	24.090910	24.002023	22.906739	24.007267	24.111043	24.131912	105.131869
	23.458043	24.086643	23.992485	22.889141	24.014643	24.105132	24.121919	105.151503
	23.457158	24.091273	23.991388	22.902739	24.019486	24.117991	24.133191	105.163598
	23.460485	24.084727	23.989652	22.906051	24.015478	24.111235	24.122293	105.144911
	23.467833	24.083582	23.998588	22.906512	24.024879	24.119489	24.134663	105.154594
	23.466244	24.085596	23.988459	22.884647	24.015045	24.117444	24.126599	105.130249
	23.452106	24.077736	23.983576	22.889398	24.001839	24.105845	24.121259	105.109045
	23.463619	24.076808	23.994563	22.899491	24.009215	24.114594	24.123996	105.130573
	23.471280	24.092012	24.011144	22.895213	24.020991	24.122473	24.130953	105.133807
	23.458452	24.087323	23.981938	22.875813	24.005199	24.098209	24.117101	105.126996
	23.472657	24.088108	23.999219	22.908522	24.014348	24.120413	24.133691	105.134786
	23.467944	24.080886	24.009180	22.902890	24.010786	24.115935	24.131280	105.143969
	23.472698	24.089157	23.999582	22.910033	24.021491	24.126638	24.148712	105.148733
	23.461744	24.092907	24.000125	22.900244	24.019027	24.131962	24.128641	105.149596
	23.468341	24.085602	24.005649	22.894528	24.015077	24.115186	24.129811	105.156731
	23.470798	24.079622	23.996231	22.887614	24.011574	24.114433	24.123832	105.156513
	23.476707	24.094453	24.002816	22.919476	24.030306	24.121937	24.137057	105.162586
	23.457060	24.075139	23.994268	22.881512	24.013432	24.111938	24.128740	105.146520
	23.462103	24.087859	23.993243	22.901154	24.016407	24.121326	24.129777	105.140895
	23.472829	24.090753	24.004844	22.907730	24.022080	24.121959	24.141375	105.147343
	23.464300	24.084376	24.005339	22.894676	24.015164	24.115961	24.128814	105.146782
	23.474037	24.080772	23.996694	22.898182	24.016413	24.111025	24.132540	105.163827
	23.469949	24.085270	24.002109	22.901543	24.032033	24.128015	24.133602	105.163557
	23.478191	24.099099	24.009984	22.884634	24.023999	24.128458	24.137351	105.183191
	23.483411	24.086392	23.994296	22.882689	24.023028	24.120845	24.128082	105.181122
	23.485144	24.102982	24.005620	22.887149	24.038047	24.121659	24.147189	105.188120
	23.475594	24.088636	24.009829	22.893895	24.017281	24.116932	24.121850	105.164090
	23.478965	24.087793	24.005090	22.894198	24.025459	24.121901	24.144370	105.166918
	23.478779	24.095257	24.002246	22.909718	24.020005	24.118281	24.128241	105.164070
	23.473580	24.093654	24.002017	22.882850	24.023059	24.119044	24.129616	105.155575
	23.479698	24.088543	24.003091	22.905284	24.028254	24.123779	24.128858	105.158477
	23.474827	24.085758	23.992745	22.894225	24.029116	24.113188	24.135693	105.151926
	23.477394	24.086241	23.996894	22.896776	24.019767	24.121478	24.123807	105.145822
	23.485364	24.092644	24.011089	22.884823	24.028185	24.129208	24.139601	105.149369
	23.491988	24.092416	24.014067	22.896766	24.036177	24.136281	24.145786	105.178414
	23.481952	24.092428	24.009498	22.896089	24.025007	24.116180	24.130223	105.171707
	23.490902	24.082989	24.002119	22.885708	24.030052	24.127180	24.139567	105.147364
	23.483159	24.087258	24.009596	22.890906	24.022547	24.121739	24.142690	105.133066
	23.485071	24.079723	24.001144	22.885878	24.028580	24.116088	24.133095	105.126369
	23.475118	24.090647	24.008862	22.896141	24.029406	24.120808	24.131878	105.109907
	23.487753	24.088598	24.004980	22.887656	24.031488	24.122661	24.146092	105.116636
	23.489498	24.083704	24.006042	22.908011	24.022005	24.133565	24.135014	105.111821
	23.493789	24.088395	24.003402	22.886534	24.032936	24.129376	24.144972	105.119424
	23.491251	24.083694	23.998470	22.896518	24.027651	24.118595	24.131338	105.110429
	23.486174	24.083815	23.993322	22.889291	24.027849	24.117877	24.135583	105.100852
	23.487728	24.092255	24.003367	22.907627	24.039940	24.137067	24.150435	105.115838
	23.499249	24.105433	24.011279	22.878583	24.036098	24.138264	24.144601	105.123451
	23.498071	24.093221	24.009603	22.879430	24.033776	24.137546	24.146362	105.108175
	23.495771	24.092703	24.014355	22.888786	24.038581	24.132959	24.140118	105.102986
	23.490152	24.088485	23.997305	22.890298	24.040758	24.124599	24.136358	105.095395
	23.498394	24.094742	24.009979	22.874295	24.039139	24.141304	24.150631	105.102373
	23.499608	24.082301	23.999140	22.881803	24.032104	24.118467	24.134756	105.117725
	23.495729	24.096010	24.004144	22.893938	24.039227	24.127191	24.147089	105.127771
	23.484156	24.078697	24.000805	22.871529	24.033852	24.121359	24.133214	105.110071
	23.497166	24.091237	24.006703	22.863202	24.029894	24.130000	24.137049	105.106463
	23.494249	24.091431	24.008500	22.886592	24.032250	24.129836	24.147779	105.098134
	23.511254	24.102077	24.015482	22.905073	24.043049	24.148879	24.144681	105.119173
	23.499407	24.095037	24.005005	22.874820	24.036943	24.134070	24.150010	105.118831
	23.491688	24.091059	24.013398	22.878411	24.032670	24.127507	24.148323	105.101963
	23.508392	24.104249	24.012844	22.901280	24.048668	24.130217	24.145708	105.123616
	23.505874	24.085888	24.008226	22.879198	24.045465	24.140071	24.149337	105.120621
	23.499484	24.096450	24.013750	22.870266	24.038395	24.138271	24.132871	105.107009
	23.501304	24.103262	24.018959	22.869058	24.043420	24.133216	24.147928	105.108933
	23.516715	24.092328	24.013292	22.881291	24.042089	24.138757	24.145240	105.100489
	23.514394	24.102383	24.017164	22.889994	24.038168	24.133004	24.152546	105.112324
	23.494630	24.092221	24.004021	22.857758	24.034921	24.127467	24.136887	105.127467
	23.504304	24.094898	24.013571	22.865954	24.036565	24.136670	24.149642	105.139655
	23.520971	24.106918	24.018033	22.892933	24.053214	24.149422	24.150438	105.160496
	23.504348	24.095345	24.015164	22.873062	24.043253	24.137859	24.150318	105.160392
	23.500121	24.093730	24.009425	22.868228	24.042925	24.135928	24.140457	105.148725
	23.503218	24.095201	24.003565	22.866947	24.038230	24.129630	24.135058	105.153748
	23.499726	24.089668	24.016130	22.872882	24.038637	24.129350	24.136854	105.149963
	23.507157	24.078528	24.002927	22.854594	24.039416	24.127838	24.134649	105.121781
	23.511911	24.093466	24.019013	22.863830	24.043247	24.134418	24.139507	105.137630
	23.508348	24.089935	24.017085	22.844441	24.040147	24.136815	24.148802	105.129447
	23.519705	24.104813	24.018448	22.892889	24.051491	24.131895	24.147875	105.135760
	23.496829	24.093142	24.001047	22.853629	24.031619	24.128518	24.133915	105.138141
	23.524447	24.109394	24.022572	22.858211	24.050500	24.146708	24.143981	105.143664
	23.514107	24.105512	24.013878	22.858912	24.040172	24.129511	24.141245	105.141303
	23.512850	24.099763	24.021416	22.853836	24.048996	24.142456	24.138702	105.141678
	23.509552	24.100342	24.020849	22.863144	24.053262	24.130459	24.149817	105.137238
	23.515089	24.093964	24.005765	22.856980	24.043673	24.130491	24.143441	105.131144
	23.517370	24.083970	24.012494	22.836394	24.035184	24.126127	24.142609	105.133984
	23.512657	24.101500	24.022237	22.851673	24.057281	24.145013	24.149830	105.146536
	23.510665	24.097715	24.015015	22.840988	24.042919	24.133861	24.151543	105.134577
	23.526889	24.091024	24.019091	22.854950	24.045380	24.147315	24.153327	105.141254
	23.530737	24.104310	24.021840	22.860463	24.049223	24.153219	24.146227	105.126237
	23.510491	24.085165	24.018729	22.842415	24.038393	24.136894	24.145408	105.112291
	23.512311	24.102056	24.016378	22.863255	24.038836	24.138024	24.149470	105.113030
	23.516736	24.084129	24.006696	22.823002	24.043027	24.131907	24.147578	105.100332
	23.522043	24.099779	24.008144	22.836856	24.050849	24.138353	24.147422	105.115215
	23.517144	24.085745	24.026412	22.831513	24.061304	24.141934	24.146675	105.099553
	23.496427	24.083479	24.016814	22.841644	24.038091	24.136821	24.144638	105.096017
	23.523044	24.103011	24.012293	22.846987	24.056888	24.147369	24.147218	105.104171
	23.517730	24.092486	24.020782	22.840798	24.033711	24.143894	24.150666	105.099242
	23.518560	24.102565	24.016429	22.836664	24.045995	24.133271	24.140818	105.089955
	23.520945	24.092764	24.005709	22.817190	24.039901	24.136798	24.146592	105.089206
	23.510925	24.088460	24.009424	22.830101	24.035390	24.136641	24.141602	105.097745
	23.525532	24.095236	24.010703	22.837125	24.047919	24.131530	24.131886	105.101812
	23.520483	24.104110	24.018432	22.829715	24.049061	24.146873	24.148546	105.098796
	23.527384	24.095237	24.019180	22.830465	24.048394	24.135899	24.144026	105.077112
	23.515976	24.096635	24.015997	22.834393	24.041352	24.132752	24.148860	105.068438
	23.533391	24.107884	24.037098	22.855777	24.052333	24.156099	24.158046	105.072806
	23.534332	24.114528	24.031372	22.842457	24.055793	24.149709	24.153008	105.100867
	23.532193	24.109995	24.016987	22.823902	24.045638	24.138182	24.148704	105.096957
	23.534293	24.107499	24.023197	22.826453	24.048652	24.146235	24.143690	105.121282
	23.513094	24.088644	24.014877	22.819490	24.044659	24.145678	24.142931	105.115490
	23.514155	24.085473	24.010102	22.840427	24.036096	24.132536	24.136783	105.131328
	23.543013	24.104462	24.027032	22.843389	24.050261	24.151507	24.172260	105.152450
	23.515483	24.090995	24.007836	22.818402	24.038110	24.137069	24.143450	105.153677
	23.521961	24.091599	24.005919	22.826587	24.042061	24.145371	24.140617	105.150641
	23.537845	24.097470	24.015686	22.812491	24.045098	24.145888	24.152901	105.154124
	23.534631	24.092069	24.020594	22.813507	24.053571	24.146572	24.145897	105.145909
	23.525579	24.098869	24.006317	22.814124	24.038802	24.127225	24.141473	105.135572
	23.527027	24.092552	24.016036	22.825935	24.049870	24.137145	24.144089	105.143164
	23.534907	24.098447	24.009561	22.811404	24.041706	24.136541	24.147465	105.144890
	23.543211	24.114108	24.019268	22.821595	24.053895	24.150332	24.152818	105.165908
	23.533773	24.090503	24.013758	22.801830	24.042176	24.139302	24.139063	105.160167
	23.532729	24.102282	24.013625	22.808588	24.047319	24.153377	24.149238	105.162622
	23.530424	24.096579	24.026021	22.823542	24.051431	24.148784	24.155904	105.164816
	23.529965	24.103681	24.016399	22.814814	24.049827	24.151762	24.152011	105.176078
	23.535177	24.093191	24.010261	22.810498	24.050223	24.139330	24.138774	105.180071
	23.534454	24.100968	24.025828	22.804055	24.055456	24.144105	24.157543	105.183222
	23.534790	24.091311	24.006548	22.801262	24.042505	24.141692	24.141017	105.168768
	23.536526	24.088285	24.018413	22.815915	24.046530	24.155107	24.147153	105.162799
	23.530781	24.100775	24.019908	22.808226	24.047664	24.136085	24.153916	105.145516
	23.543153	24.093915	24.012131	22.789403	24.045590	24.142486	24.150950	105.128929
	23.538459	24.097267	24.022356	22.812059	24.050523	24.145815	24.150866	105.123126
	23.528677	24.088647	24.015339	22.799280	24.039835	24.132610	24.149347	105.130312
	23.532260	24.096942	24.009659	22.805071	24.043872	24.145350	24.144357	105.130156
	23.544043	24.090432	24.021248	22.792801	24.043501	24.153682	24.153422	105.132444
	23.535412	24.098992	24.009419	22.774739	24.048166	24.134067	24.141368	105.110387
	23.543087	24.090757	24.012409	22.816556	24.043233	24.140129	24.138631	105.115337
	23.553442	24.104972	24.028230	22.815650	24.053577	24.153449	24.152844	105.121078
	23.541434	24.095677	24.013205	22.792088	24.041352	24.140998	24.148131	105.115036
	23.543787	24.104527	24.026638	22.803948	24.050805	24.156174	24.155147	105.102712
	23.552201	24.104514	24.011964	22.800491	24.046381	24.156332	24.150325	105.107642
	23.539947	24.106516	24.016944	22.782054	24.058653	24.146614	24.158510	105.105021
	23.543787	24.095581	24.015400	22.784641	24.049888	24.148158	24.156280	105.102307
	23.542973	24.101621	24.023504	22.775997	24.058010	24.149406	24.139874	105.102182
	23.539149	24.087298	24.011240	22.780470	24.040674	24.136425	24.151205	105.088246
	23.551905	24.098269	24.023359	22.799282	24.051812	24.149165	24.153700	105.097710
	23.541454	24.103514	24.016233	22.790529	24.059700	24.144912	24.161922	105.089588
	23.553474	24.099428	24.026579	22.788499	24.056817	24.156230	24.161043	105.088236
	23.541743	24.094918	24.012676	22.765830	24.036392	24.145200	24.146914	105.094424
	23.558808	24.106564	24.012869	22.777279	24.048858	24.143921	24.148252	105.099135
	23.552929	24.103997	24.011217	22.775393	24.049858	24.142172	24.155992	105.105022
	23.541767	24.088637	24.008685	22.763896	24.049474	24.145453	24.153689	105.110347
	23.542234	24.091881	24.011928	22.761865	24.049253	24.144774	24.145709	105.108007
	23.542613	24.101791	24.011072	22.772492	24.045737	24.144237	24.141418	105.129992
	23.534487	24.089385	24.010807	22.771767	24.036704	24.136809	24.139320	105.108225
	23.547172	24.098150	24.010180	22.776651	24.056706	24.144210	24.161597	105.124875
	23.543854	24.093931	24.013521	22.760245	24.051331	24.143645	24.149133	105.122421
	23.541474	24.093436	24.014171	22.778126	24.045288	24.134625	24.144974	105.136418
	23.549876	24.097427	24.007853	22.772480	24.053452	24.149888	24.160416	105.146776
	23.548235	24.094835	24.011905	22.745990	24.047002	24.132903	24.144998	105.134069
	23.553384	24.084539	24.010542	22.745543	24.052374	24.140794	24.149591	105.154826
	23.554796	24.101189	24.029028	22.748457	24.037977	24.150908	24.150893	105.146267
	23.557876	24.093798	24.018887	22.774584	24.042886	24.144135	24.147626	105.143449
	23.562980	24.107542	24.027593	22.763099	24.061502	24.149920	24.159307	105.148982
	23.545160	24.078776	24.005466	22.748953	24.046221	24.133726	24.142455	105.138395
	23.561119	24.101153	24.015703	22.751867	24.057580	24.154703	24.158874	105.169749
	23.537395	24.096957	24.014257	22.735254	24.037318	24.147272	24.155824	105.150916
	23.548490	24.096126	24.021902	22.758541	24.048401	24.146442	24.145144	105.141900
	23.559605	24.106422	24.021661	22.760596	24.059504	24.153878	24.151774	105.144458
	23.538843	24.079247	23.998147	22.754019	24.038535	24.130164	24.135596	105.134652
	23.545869	24.094511	24.014101	22.754624	24.062048	24.150008	24.159104	105.145052
	23.563113	24.102203	24.022482	22.747636	24.053845	24.149823	24.159007	105.154848
	23.557427	24.087735	24.019695	22.740248	24.049769	24.146664	24.148435	105.144739
	23.560851	24.093378	24.011364	22.735800	24.042881	24.152375	24.152245	105.151188
	23.560203	24.091594	24.022180	22.763874	24.057123	24.152185	24.162142	105.167629
	23.559610	24.085831	24.017562	22.756717	24.055844	24.152738	24.159357	105.183996
	23.571531	24.101974	24.024085	22.744190	24.057902	24.162354	24.160153	105.186460
	23.561417	24.101588	24.017743	22.758965	24.050777	24.154314	24.143963	105.170519
	23.559535	24.090268	24.025666	22.739343	24.051416	24.149915	24.154404	105.185848
	23.560800	24.096296	24.023218	22.746307	24.057033	24.148659	24.156308	105.162201
	23.557902	24.094054	24.024641	22.737397	24.051847	24.145078	24.141927	105.166194
	23.558274	24.095344	24.005312	22.743285	24.046721	24.139265	24.148256	105.169678
	23.560856	24.097514	24.012294	22.727542	24.045635	24.150089	24.157297	105.155546
	23.563209	24.098708	24.021964	22.750334	24.063105	24.151523	24.153452	105.163293
	23.564755	24.108630	24.024786	22.742366	24.059151	24.151234	24.144821	105.162170
	23.553783	24.079888	24.011161	22.744096	24.043150	24.140047	24.153645	105.163262
	23.566696	24.102940	24.014742	22.743092	24.059716	24.148135	24.160661	105.182750
	23.558116	24.099625	24.025172	22.726902	24.055039	24.154453	24.150704	105.155983
	23.559018	24.094489	24.000333	22.732090	24.055711	24.142985	24.148088	105.144440
	23.564376	24.091367	24.015997	22.748026	24.054191	24.146962	24.150234	105.139376
	23.555480	24.092849	24.008086	22.731824	24.043242	24.133267	24.140493	105.133146
	23.566559	24.101446	24.020350	22.756066	24.060495	24.154639	24.157335	105.134437
	23.567187	24.093453	24.017396	22.738172	24.069141	24.163283	24.154382	105.139792
	23.560691	24.099107	24.011138	22.728221	24.053030	24.146260	24.149270	105.138939
	23.582548	24.109295	24.018120	22.728560	24.071657	24.150683	24.147776	105.151679
	23.561925	24.098312	24.007134	22.735694	24.059531	24.152989	24.147330	105.146157
	23.554776	24.093429	23.995836	22.730567	24.046892	24.139665	24.140615	105.138982
	23.564807	24.098650	24.009076	22.723168	24.057829	24.146935	24.152477	105.165416
	23.567844	24.091923	23.998911	22.727908	24.049638	24.145159	24.144377	105.169888
	23.568279	24.100567	24.012597	22.722793	24.056028	24.145135	24.146378	105.159957
	23.565251	24.086581	24.003879	22.707159	24.059188	24.134322	24.142930	105.164688
	23.568089	24.101266	24.008027	22.717521	24.069812	24.157313	24.150513	105.177354
	23.569952	24.086341	24.006617	22.726675	24.054492	24.158029	24.141087	105.166655
	23.560842	24.089017	24.002879	22.709831	24.039664	24.146869	24.143991	105.175088
	23.577318	24.107005	24.017204	22.737750	24.072846	24.153475	24.153274	105.193171
	23.562135	24.096649	23.990808	22.705080	24.048058	24.142205	24.149332	105.179497
	23.568106	24.089536	24.012791	22.725744	24.060666	24.149772	24.144739	105.202602
	23.563484	24.101930	24.008921	22.721174	24.051467	24.155004	24.145450	105.199265
	23.567338	24.092900	24.015010	22.723374	24.058066	24.140530	24.152912	105.198787
	23.577788	24.112009	24.016710	22.726458	24.071255	24.158297	24.166751	105.192548
	23.578334	24.111033	24.013443	22.730533	24.061491	24.146932	24.161881	105.193879
	23.571150	24.101412	24.011839	22.704802	24.058209	24.150751	24.154552	105.187557
	23.584921	24.103715	24.007956	22.716301	24.061657	24.149617	24.147922	105.179664
	23.584043	24.096758	24.013370	22.705648	24.057114	24.152405	24.164786	105.176232
	23.575388	24.089536	24.015541	22.711041	24.058319	24.146280	24.155962	105.164668
	23.577682	24.098941	24.010971	22.734946	24.061755	24.149945	24.156662	105.178510
	23.580374	24.102533	23.998068	22.716954	24.048409	24.146679	24.147428	105.156516
	23.573447	24.102750	24.007450	22.715564	24.057067	24.159228	24.160242	105.147219
	23.574305	24.097627	24.002554	22.704681	24.055175	24.150237	24.152371	105.140824
	23.578650	24.094287	23.996235	22.701332	24.043250	24.146560	24.139640	105.143475
