LabVIEW Measurement	
Writer_Version	2
Reader_Version	2
Separator	Tab
Decimal_Separator	.
Multi_Headings	No
X_Columns	No
Time_Pref	Relative
Operator	Standard
Date	2018/10/16
Time	14:10:07.9486718177795410157
***End_of_Header***	
	
Channels	8								
Samples	1	1	1	1	1	1	1	1	
Date	2018/10/16	2018/10/16	2018/10/16	2018/10/16	2018/10/16	2018/10/16	2018/10/16	2018/10/16	
Time	14:10:07.9486718177795410157	14:10:07.9486718177795410157	14:10:07.9486718177795410157	14:10:07.9486718177795410157	14:10:07.9486718177795410157	14:10:07.9486718177795410157	14:10:07.9486718177795410157	14:10:07.9486718177795410157	
X_Dimension	Time	Time	Time	Time	Time	Time	Time	Time	
X0	0.0000000000000000E+0	0.0000000000000000E+0	0.0000000000000000E+0	0.0000000000000000E+0	0.0000000000000000E+0	0.0000000000000000E+0	0.0000000000000000E+0	0.0000000000000000E+0	
Delta_X	1.000000	1.000000	1.000000	1.000000	1.000000	1.000000	1.000000	1.000000	
***End_of_Header***									
X_Value	Temperature_1	Temperature_2	Temperature_3	Temperature_4	Temperature_5	Temperature_6	Temperature_7	Temperature_8	Comment
	21.979888	22.249418	21.911017	22.055057	22.316630	27.428616	21.979591	21.844504
	21.988959	22.261520	21.919906	22.048529	22.321556	27.430532	21.978355	21.856847
	21.998925	22.267027	21.923576	22.060710	22.325537	27.444479	21.999281	21.871105
	21.998633	22.263480	21.921177	22.055552	22.322026	27.448967	22.003325	21.869396
	22.004942	22.272702	21.920050	22.067308	22.326261	27.451564	22.008871	21.882538
	22.017038	22.291908	21.931907	22.071799	22.334900	27.460338	22.023486	21.891864
	22.031544	22.305983	21.942541	22.074838	22.335601	27.471039	22.030207	21.909173
	22.044064	22.309043	21.950666	22.080431	22.340525	27.482052	22.030738	21.927654
	22.048676	22.316655	21.949309	22.082065	22.350653	27.481380	22.048937	21.923536
	22.042790	22.317610	21.957859	22.086701	22.336724	27.493302	22.047362	21.931856
	22.052125	22.329348	21.958560	22.089703	22.347892	27.495480	22.053815	21.950967
	22.052536	22.340130	21.964289	22.090599	22.340025	27.511579	22.052180	21.938516
	22.065708	22.343952	21.979849	22.097414	22.353880	27.535972	22.061986	21.969724
	22.075188	22.369532	21.980829	22.104835	22.354387	27.537156	22.081601	21.977608
	22.083723	22.374504	21.983505	22.099918	22.366595	27.543319	22.075074	21.979133
	22.090224	22.377552	21.981493	22.105268	22.370103	27.547016	22.082034	21.986785
	22.098165	22.398279	21.996945	22.118646	22.377120	27.573287	22.092882	22.002237
	22.114424	22.400263	21.990187	22.114650	22.383024	27.603002	22.090497	22.003072
	22.107945	22.397345	21.996931	22.112421	22.358616	27.599099	22.107821	22.011196
	22.118016	22.417394	22.005722	22.118680	22.370751	27.613375	22.114770	22.030110
	22.136913	22.416740	22.015421	22.137118	22.379293	27.628871	22.115955	22.042110
	22.133583	22.426986	22.013022	22.126438	22.368147	27.632173	22.123448	22.039940
	22.147601	22.441855	22.019161	22.144307	22.385146	27.654442	22.140396	22.055972
	22.152346	22.445725	22.025566	22.146340	22.391958	27.662770	22.133229	22.061456
	22.154753	22.453551	22.034089	22.145430	22.390916	27.682883	22.150261	22.071589
	22.172777	22.463362	22.032175	22.139836	22.406632	27.671598	22.150647	22.080027
	22.165948	22.457070	22.040142	22.150332	22.390151	27.683491	22.158612	22.082243
	22.176201	22.480067	22.053266	22.168283	22.406376	27.700672	22.171733	22.100657
	22.189975	22.499119	22.053932	22.170788	22.415546	27.709513	22.184358	22.119264
	22.191936	22.495647	22.057357	22.171683	22.403482	27.705768	22.176743	22.113259
	22.207767	22.501138	22.052041	22.176718	22.405743	27.714142	22.178788	22.121515
	22.197137	22.511903	22.066497	22.162421	22.403853	27.709999	22.185881	22.124698
	22.209580	22.521567	22.080312	22.189112	22.413992	27.727527	22.193712	22.135060
	22.201856	22.529005	22.063832	22.180686	22.407421	27.723757	22.195175	22.140434
	22.215327	22.535452	22.073275	22.182537	22.406633	27.733208	22.204156	22.155396
	22.233591	22.543180	22.081701	22.182681	22.418913	27.751943	22.214420	22.163821
	22.238540	22.538776	22.086955	22.192304	22.410527	27.750470	22.217602	22.172064
	22.248464	22.550473	22.084400	22.192739	22.417918	27.750960	22.219878	22.183080
	22.244856	22.553048	22.089278	22.193936	22.419369	27.753531	22.219695	22.188647
	22.245714	22.568637	22.092461	22.194818	22.423215	27.754834	22.225866	22.189529
	22.274482	22.582498	22.101734	22.207310	22.443697	27.775087	22.253305	22.213520
	22.271528	22.574466	22.113478	22.209391	22.430399	27.769666	22.241358	22.202722
	22.271781	22.600710	22.113065	22.205528	22.447663	27.791056	22.248764	22.214038
	22.283278	22.606890	22.123391	22.219992	22.458237	27.806739	22.268746	22.234711
	22.285431	22.607191	22.119092	22.225124	22.449585	27.809776	22.268588	22.238922
	22.284801	22.612149	22.126815	22.216747	22.438841	27.817790	22.263431	22.238594
	22.283517	22.619949	22.121052	22.217654	22.442615	27.821976	22.268017	22.249620
	22.296138	22.633698	22.146547	22.236475	22.458910	27.828087	22.278558	22.264300
	22.292398	22.635088	22.137128	22.218548	22.445516	27.821208	22.272590	22.263392
	22.311603	22.642658	22.135965	22.239693	22.455291	27.824964	22.294652	22.275337
	22.311953	22.650905	22.139850	22.237598	22.452192	27.813263	22.293248	22.272552
	22.326704	22.666781	22.152984	22.247279	22.466479	27.821707	22.302698	22.279703
	22.321318	22.661327	22.166154	22.243890	22.460175	27.811156	22.300688	22.294940
	22.327925	22.670941	22.161517	22.258571	22.466321	27.823824	22.321806	22.300422
	22.348785	22.669778	22.169784	22.253268	22.472694	27.827398	22.316274	22.310066
	22.334214	22.687481	22.167035	22.255349	22.471689	27.827768	22.321114	22.305248
	22.356166	22.692341	22.168681	22.261824	22.474556	27.847649	22.332646	22.311033
	22.362758	22.710272	22.189162	22.270573	22.479308	27.873255	22.335646	22.328288
	22.361826	22.708796	22.185384	22.269786	22.476998	27.876198	22.335089	22.330030
	22.373417	22.710416	22.185626	22.280145	22.489735	27.884928	22.337859	22.342687
	22.363264	22.713764	22.180238	22.279357	22.479584	27.892618	22.342819	22.342819
	22.380651	22.727524	22.195163	22.278183	22.495358	27.911849	22.354061	22.347393
	22.379852	22.740581	22.195815	22.288263	22.495478	27.912876	22.360231	22.357932
	22.375991	22.733023	22.202279	22.282308	22.478747	27.922013	22.361864	22.358875
	22.396148	22.749599	22.204154	22.284413	22.489246	27.927166	22.355921	22.360520
	22.405319	22.754035	22.225844	22.300350	22.504161	27.935322	22.386570	22.385421
	22.411356	22.785263	22.229051	22.303787	22.502842	27.953786	22.390007	22.400122
	22.416460	22.762496	22.213847	22.306521	22.502659	27.946335	22.386762	22.389061
	22.424723	22.793785	22.229764	22.314847	22.504255	27.958819	22.403133	22.404743
	22.406053	22.786288	22.222948	22.302974	22.515468	27.964905	22.395400	22.394711
