LabVIEW Measurement	
Writer_Version	2
Reader_Version	2
Separator	Tab
Decimal_Separator	.
Multi_Headings	No
X_Columns	No
Time_Pref	Relative
Operator	Standard
Date	2018/10/31
Time	15:20:38.625049591064453125
***End_of_Header***	
	
Channels	8								
Samples	1	1	1	1	1	1	1	1	
Date	2018/10/31	2018/10/31	2018/10/31	2018/10/31	2018/10/31	2018/10/31	2018/10/31	2018/10/31	
Time	15:20:38.625049591064453125	15:20:38.625049591064453125	15:20:38.625049591064453125	15:20:38.625049591064453125	15:20:38.625049591064453125	15:20:38.625049591064453125	15:20:38.625049591064453125	15:20:38.625049591064453125	
X_Dimension	Time	Time	Time	Time	Time	Time	Time	Time	
X0	0.0000000000000000E+0	0.0000000000000000E+0	0.0000000000000000E+0	0.0000000000000000E+0	0.0000000000000000E+0	0.0000000000000000E+0	0.0000000000000000E+0	0.0000000000000000E+0	
Delta_X	1.000000	1.000000	1.000000	1.000000	1.000000	1.000000	1.000000	1.000000	
***End_of_Header***									
X_Value	Temperature_1	Temperature_2	Temperature_3	Temperature_4	Temperature_5	Temperature_6	Temperature_7	Temperature_8	Comment
	24.467630	24.529625	24.552739	42.021935	125.330231	24.519127	24.505365	24.526650
	24.458799	24.532817	24.558448	41.972240	125.325516	24.518765	24.508329	24.519314
	24.451102	24.516833	24.532396	41.925680	125.321560	24.505348	24.498523	24.510196
	24.455006	24.528397	24.555630	41.896865	125.342669	24.514515	24.500933	24.519014
	24.457970	24.541744	24.553644	41.855193	125.339399	24.523887	24.511992	24.525038
	24.466801	24.532373	24.562124	41.804180	125.336825	24.516009	24.503536	24.525050
	24.441213	24.524520	24.539167	41.753965	125.327275	24.507132	24.484926	24.504380
	24.452756	24.529628	24.548851	41.723768	125.327932	24.522106	24.495527	24.521847
	24.462731	24.535109	24.549527	41.683325	125.339936	24.506218	24.505128	24.528472
	24.448805	24.519042	24.551539	41.639751	125.328458	24.510145	24.505538	24.522246
	24.455324	24.530015	24.545806	41.589798	125.317233	24.517350	24.500491	24.514452
	24.456564	24.527739	24.549023	41.543400	125.316929	24.514928	24.503479	24.524993
	24.443542	24.526234	24.542254	41.505699	125.311388	24.497788	24.493735	24.509985
	24.459722	24.530739	24.545156	41.466727	125.320151	24.518315	24.504419	24.524788
	24.435193	24.513503	24.542797	41.418027	125.301706	24.507750	24.501144	24.515334
	24.456638	24.534499	24.555782	41.380829	125.309511	24.518664	24.508180	24.528091
	24.443086	24.524659	24.550062	41.334621	125.301990	24.511751	24.491702	24.516191
	24.458363	24.552652	24.557686	41.313023	125.311148	24.518100	24.514204	24.531368
	24.458050	24.521239	24.552592	41.273827	125.297266	24.512523	24.503845	24.522841
	24.459255	24.530912	24.550594	41.223687	125.300003	24.513042	24.500473	24.524504
	24.455931	24.533839	24.553520	41.187149	125.298176	24.525738	24.506833	24.528347
	24.463184	24.533997	24.553907	41.152135	125.303103	24.522920	24.510424	24.521868
	24.456812	24.522904	24.558147	41.108456	125.303902	24.511514	24.501391	24.526108
	24.468028	24.538527	24.555004	41.072015	125.298915	24.531197	24.518616	24.536009
	24.470594	24.534806	24.559293	41.050056	125.307971	24.527126	24.522905	24.542816
	24.461777	24.543009	24.573445	41.003562	125.309597	24.530897	24.516690	24.537059
	24.465175	24.536325	24.564015	40.967894	125.310526	24.529259	24.500622	24.523738
	24.456911	24.538987	24.557524	40.925107	125.302834	24.519624	24.501225	24.511524
	24.452358	24.534761	24.551696	40.882958	125.295182	24.521251	24.502033	24.530413
	24.462285	24.537387	24.560730	40.850088	125.319998	24.518360	24.510610	24.528462
	24.454721	24.535473	24.560188	40.811275	125.315768	24.514458	24.502287	24.530667
	24.468586	24.546121	24.581591	40.783946	125.313961	24.515964	24.520031	24.535594
	24.470406	24.536329	24.559672	40.736181	125.310307	24.530371	24.509553	24.539076
	24.452578	24.527273	24.554735	40.697092	125.310712	24.514375	24.506217	24.522696
	24.447651	24.531645	24.561396	40.657043	125.299294	24.509907	24.496858	24.523635
	24.461554	24.536284	24.560084	40.622341	125.314781	24.513051	24.506532	24.518433
	24.460844	24.540078	24.565709	40.598556	125.308431	24.517605	24.511929	24.529322
	24.458158	24.538911	24.570949	40.550703	125.315771	24.525447	24.516712	24.536851
	24.452545	24.542513	24.566542	40.504582	125.300709	24.511138	24.504980	24.534503
	24.453690	24.548344	24.563905	40.475453	125.298217	24.526015	24.509667	24.525458
	24.448993	24.535155	24.548657	40.427028	125.296582	24.514911	24.500368	24.520279
	24.446981	24.530892	24.546225	40.392111	125.290292	24.521825	24.506174	24.533180
	24.465257	24.535457	24.567496	40.360422	125.315775	24.529800	24.509596	24.541637
	24.457561	24.548323	24.557705	40.327682	125.315846	24.523935	24.519258	24.538024
	24.454911	24.547070	24.558284	40.294123	125.320915	24.519226	24.515717	24.527618
	24.460863	24.526173	24.548372	40.251068	125.302309	24.513505	24.510839	24.518392
	24.459671	24.538834	24.568355	40.218566	125.307448	24.517348	24.519381	24.535401
	24.457804	24.545507	24.559696	40.176275	125.308570	24.516168	24.506372	24.534065
	24.457878	24.531018	24.558709	40.138973	125.298081	24.511664	24.515227	24.527127
	24.466721	24.555758	24.568573	40.112400	125.320070	24.531263	24.520286	24.536535
	24.463468	24.546738	24.571911	40.072190	125.297587	24.520916	24.515385	24.544907
	24.453688	24.539777	24.562890	40.036408	125.294953	24.512052	24.508423	24.532453
	24.464566	24.538223	24.559735	39.998325	125.302152	24.513775	24.514651	24.536621
	24.457038	24.534347	24.560435	39.960649	125.306585	24.529363	24.508485	24.538466
	24.463544	24.535298	24.555208	39.922770	125.307433	24.524654	24.508521	24.529806
	24.454425	24.533384	24.552378	39.880781	125.302861	24.521716	24.502029	24.524458
	24.464617	24.545478	24.570193	39.851919	125.314088	24.531906	24.510004	24.554403
	24.466148	24.531880	24.566436	39.809469	125.312109	24.527486	24.513571	24.540806
	24.466764	24.538686	24.570725	39.784350	125.319723	24.526958	24.511223	24.538915
	24.465114	24.551467	24.565655	39.757257	125.322176	24.526224	24.513247	24.543686
	24.468319	24.538833	24.573389	39.724606	125.319299	24.523935	24.522356	24.532196
	24.463224	24.543024	24.567282	39.689849	125.318483	24.532115	24.524487	24.542338
	24.459080	24.540677	24.573631	39.657182	125.315393	24.524539	24.522140	24.534727
	24.464237	24.541016	24.568477	39.612252	125.321442	24.526034	24.512637	24.540787
	24.458082	24.538812	24.554831	39.578166	125.316475	24.524228	24.510204	24.536294
	24.458782	24.537572	24.566407	39.547896	125.308814	24.527216	24.507591	24.523840
	24.475757	24.546836	24.573381	39.522928	125.319395	24.530915	24.525323	24.547522
	24.467421	24.533237	24.569624	39.476899	125.318547	24.515485	24.511038	24.546511
	24.468832	24.554244	24.580790	39.448445	125.316660	24.521931	24.516712	24.545090
	24.463001	24.541887	24.567289	39.421813	125.322516	24.524111	24.519459	24.532962
	24.464605	24.548537	24.571421	39.378321	125.319064	24.523654	24.514437	24.542129
	24.481507	24.552043	24.574470	39.350646	125.330159	24.537579	24.520690	24.537626
	24.479822	24.569111	24.588104	39.333460	125.326637	24.539098	24.530206	24.552405
	24.469426	24.536905	24.565053	39.284235	125.333654	24.525729	24.520198	24.541024
	24.475618	24.555273	24.568317	39.257874	125.316593	24.529860	24.518427	24.548636
	24.479582	24.557273	24.583361	39.228286	125.337178	24.542521	24.533244	24.557502
	24.467524	24.546326	24.574931	39.191463	125.331101	24.529777	24.532823	24.541749
	24.472609	24.557769	24.578593	39.163707	125.325004	24.535777	24.520237	24.545640
	24.479946	24.552265	24.579726	39.130607	125.321371	24.528009	24.527092	24.545629
	24.479417	24.552013	24.580847	39.103712	125.314405	24.529539	24.519058	24.543317
	24.474479	24.551170	24.571995	39.067358	125.315446	24.539706	24.521190	24.543161
	24.470625	24.536705	24.570804	39.031773	125.316628	24.522579	24.513362	24.536248
	24.479310	24.549305	24.575393	39.013349	125.331771	24.531722	24.537634	24.541295
	24.475082	24.555786	24.583246	38.976989	125.328420	24.536191	24.521000	24.541826
	24.464157	24.539875	24.568252	38.934218	125.324060	24.526869	24.518133	24.533009
	24.480192	24.559762	24.575552	38.908646	125.332894	24.535121	24.525663	24.540539
	24.482602	24.546839	24.566977	38.869881	125.329543	24.534784	24.515257	24.545237
	24.471339	24.544551	24.569952	38.846550	125.329503	24.525811	24.520749	24.538371
	24.472762	24.543384	24.566726	38.807418	125.319762	24.511213	24.511115	24.527822
	24.485988	24.543144	24.576326	38.776962	125.335642	24.541374	24.528497	24.541771
	24.470751	24.544806	24.574098	38.745462	125.322105	24.525452	24.526040	24.541374
	24.493628	24.557345	24.581602	38.732969	125.334563	24.544435	24.528052	24.552082
	24.485715	24.554660	24.577315	38.685463	125.321985	24.534692	24.525367	24.539098
	24.484474	24.553348	24.580809	38.662405	125.329194	24.536427	24.531378	24.552204
	24.477199	24.556191	24.572668	38.618484	125.334413	24.522058	24.512251	24.532162
	24.474994	24.557541	24.581569	38.602010	125.346760	24.530839	24.525959	24.548158
	24.483055	24.562384	24.579775	38.570699	125.346610	24.527913	24.532404	24.540643
	24.468719	24.549991	24.564179	38.532422	125.326732	24.535092	24.517035	24.535802
	24.491211	24.558230	24.578368	38.514413	125.350184	24.530119	24.521842	24.541753
	24.496874	24.565120	24.586172	38.493090	125.346683	24.540587	24.530106	24.544752
	24.479746	24.558798	24.569553	38.434243	125.350934	24.527351	24.519892	24.535455
	24.486805	24.556377	24.584524	38.423439	125.349944	24.539902	24.526855	24.554317
	24.484614	24.539769	24.579587	38.370824	125.349259	24.527641	24.523520	24.529928
