LabVIEW Measurement	
Writer_Version	2
Reader_Version	2
Separator	Tab
Decimal_Separator	.
Multi_Headings	No
X_Columns	No
Time_Pref	Relative
Operator	Standard
Date	2018/11/14
Time	15:23:26.1550898551940917969
***End_of_Header***	
	
Channels	8								
Samples	1	1	1	1	1	1	1	1	
Date	2018/11/14	2018/11/14	2018/11/14	2018/11/14	2018/11/14	2018/11/14	2018/11/14	2018/11/14	
Time	15:23:26.1550898551940917969	15:23:26.1550898551940917969	15:23:26.1550898551940917969	15:23:26.1550898551940917969	15:23:26.1550898551940917969	15:23:26.1550898551940917969	15:23:26.1550898551940917969	15:23:26.1550898551940917969	
X_Dimension	Time	Time	Time	Time	Time	Time	Time	Time	
X0	0.0000000000000000E+0	0.0000000000000000E+0	0.0000000000000000E+0	0.0000000000000000E+0	0.0000000000000000E+0	0.0000000000000000E+0	0.0000000000000000E+0	0.0000000000000000E+0	
Delta_X	1.000000	1.000000	1.000000	1.000000	1.000000	1.000000	1.000000	1.000000	
***End_of_Header***									
X_Value	Temperature_1	Temperature_2	Temperature_3	Temperature_4	Temperature_5	Temperature_6	Temperature_7	Temperature_8	Comment
	23.800735	23.764694	24.101998	75.121121	23.025137	23.982464	24.170941	23.876086
	23.809120	23.765132	24.099458	75.113838	23.010578	23.978245	24.155347	23.863232
	23.807930	23.764045	24.090812	75.113062	23.013748	23.985533	24.154948	23.875208
	23.808187	23.769712	24.094413	75.121721	23.011250	23.984415	24.165419	23.878811
	23.811739	23.770435	24.097427	75.118848	23.016415	23.986820	24.158355	23.874263
	23.819327	23.762115	24.102399	75.143901	23.015061	23.994404	24.166303	23.889091
	23.816773	23.773434	24.100653	75.140243	23.022835	23.982458	24.159748	23.883678
	23.809996	23.750538	24.092663	75.129267	23.009618	23.979349	24.161837	23.874767
	23.819144	23.760889	24.106213	75.142998	23.013960	23.988494	24.155001	23.875032
	23.804150	23.752956	24.085458	75.130004	23.003762	23.978776	24.149136	23.872143
	23.814591	23.766184	24.100051	75.143641	23.020190	23.985546	24.163269	23.886513
	23.808718	23.763686	24.091828	75.155078	23.019588	23.988153	24.161689	23.880808
	23.797538	23.747885	24.088178	75.142639	23.011373	23.978352	24.149337	23.858364
	23.811535	23.754488	24.091341	75.133052	23.010700	23.982491	24.167387	23.857861
	23.797422	23.751247	24.091080	75.137796	23.005289	23.972279	24.151093	23.865851
	23.828958	23.764724	24.109816	75.151867	23.024020	23.989139	24.168910	23.885512
	23.810926	23.762582	24.090953	75.135606	23.006876	23.980049	24.165853	23.872370
	23.808602	23.753159	24.085890	75.125829	23.025440	23.971311	24.157813	23.871200
	23.796200	23.754756	24.084507	75.127897	23.011412	23.971745	24.147498	23.871192
	23.806590	23.755819	24.095419	75.141520	23.011257	23.981672	24.149705	23.884630
	23.813422	23.770465	24.084400	75.131744	23.010294	23.991710	24.161592	23.872689
	23.811327	23.754620	24.090328	75.120925	23.012558	23.979305	24.148050	23.875869
	23.818879	23.774646	24.099115	75.138227	23.024026	23.996019	24.157294	23.877098
	23.809015	23.754885	24.092654	75.125523	23.007946	23.983180	24.154499	23.866050
	23.800561	23.755493	24.079746	75.135622	23.004300	23.970376	24.140905	23.858178
	23.798257	23.755698	24.092780	75.136430	23.013242	23.987549	24.139736	23.875343
	23.797415	23.751552	24.085887	75.143469	23.015154	23.983958	24.154146	23.865468
	23.809757	23.773439	24.094244	75.140871	23.019710	23.985297	24.156318	23.879787
	23.812970	23.759796	24.095958	75.136612	23.020632	23.989195	24.147954	23.870960
	23.801256	23.754863	24.106376	75.133183	23.021756	23.982756	24.161806	23.878404
	23.810863	23.764613	24.094129	75.142219	23.010945	23.986402	24.163761	23.868672
	23.799908	23.753539	24.085582	75.140079	23.019488	23.965828	24.153612	23.871350
	23.803931	23.750116	24.089950	75.143621	23.005149	23.982222	24.153627	23.866553
	23.816936	23.762870	24.091470	75.134414	23.023917	23.997514	24.154918	23.883200
	23.815754	23.770351	24.102153	75.145754	23.028243	23.983502	24.165829	23.878304
	23.798481	23.755553	24.080265	75.152280	23.016680	23.971733	24.144172	23.870614
	23.799389	23.755023	24.090273	75.149102	23.014606	23.978828	24.149140	23.877418
	23.811612	23.760019	24.082895	75.154663	23.020880	23.980507	24.155506	23.880350
	23.808960	23.755956	24.089601	75.161777	23.030162	23.982209	24.156256	23.873079
	23.810916	23.761532	24.097006	75.156656	23.017427	23.977520	24.160911	23.874529
	23.818543	23.759362	24.088423	75.139332	23.018179	23.975291	24.157598	23.871214
	23.805276	23.761682	24.095781	75.150150	23.014992	23.987233	24.152815	23.872616
	23.804976	23.752105	24.086898	75.141064	22.999768	23.983038	24.143476	23.877709
	23.812891	23.770384	24.090504	75.152010	23.011829	23.993929	24.161739	23.888191
	23.819902	23.761531	24.099753	75.132371	23.024132	23.996125	24.157932	23.890799
	23.793835	23.759298	24.086297	75.129104	23.014552	23.987481	24.155701	23.879171
	23.807698	23.757985	24.088193	75.136633	23.005249	23.985071	24.146144	23.863649
	23.798762	23.744678	24.076956	75.142226	23.002268	23.977285	24.145445	23.865471
	23.802730	23.756400	24.095313	75.139763	23.014279	23.988812	24.149141	23.878106
	23.800260	23.754483	24.082173	75.127027	23.008819	23.984051	24.147455	23.866565
	23.811965	23.760589	24.091482	75.144387	23.018937	23.975818	24.162488	23.885274
	23.808712	23.750419	24.102852	75.148255	23.021189	23.988835	24.161489	23.872357
	23.800184	23.745609	24.075138	75.128125	23.011269	23.986725	24.148895	23.873048
	23.803227	23.753371	24.087247	75.134946	23.007888	23.987017	24.151383	23.873933
	23.805257	23.763978	24.090517	75.145173	23.022320	23.987443	24.150529	23.867120
	23.816718	23.772535	24.101587	75.146071	23.029897	23.993400	24.163659	23.878425
	23.801838	23.757974	24.085891	75.131642	23.002594	23.976923	24.138804	23.874868
	23.799775	23.756516	24.082372	75.133434	23.012467	23.975777	24.145134	23.880514
	23.807042	23.757543	24.101037	75.133950	23.010792	23.994955	24.153261	23.872145
	23.805592	23.766088	24.088272	75.136705	23.015768	23.979071	24.160882	23.877938
	23.808263	23.754136	24.083429	75.128166	23.009030	23.982429	24.159476	23.872634
	23.820209	23.769039	24.099697	75.113432	23.033853	23.991850	24.162457	23.885701
	23.813060	23.753862	24.090258	75.110483	23.022789	23.981496	24.160348	23.865944
	23.798296	23.749028	24.079242	75.092407	23.012362	23.983692	24.144753	23.860195
	23.805503	23.754870	24.100198	75.116584	23.009939	23.984023	24.148070	23.870847
	23.796734	23.738139	24.083937	75.124475	23.011487	23.969300	24.137079	23.862142
	23.797738	23.746296	24.079719	75.134352	23.014788	23.980155	24.143856	23.863422
	23.804641	23.735463	24.072100	75.126411	22.993463	23.970788	24.135780	23.847778
	23.801302	23.743031	24.081496	75.126414	23.013766	23.983489	24.142426	23.867721
	23.795504	23.740224	24.068841	75.136118	23.009106	23.975631	24.138247	23.848872
	23.799689	23.748852	24.081357	75.113419	23.019268	23.986230	24.149387	23.861623
	23.801961	23.755346	24.091053	75.135903	23.012819	23.980253	24.148775	23.873157
	23.807718	23.759139	24.080183	75.132904	23.013994	23.978676	24.163330	23.858386
	23.788864	23.747891	24.079709	75.136418	23.005440	23.979762	24.144991	23.844848
	23.799083	23.747195	24.077181	75.139109	23.006952	23.978522	24.148877	23.857445
	23.803876	23.741227	24.083816	75.142215	23.012901	23.979876	24.143600	23.859270
	23.808291	23.754898	24.092438	75.144422	23.017553	23.990017	24.147869	23.864229
	23.808828	23.741617	24.097951	75.141116	23.018090	23.988721	24.146510	23.870891
	23.801181	23.744597	24.082145	75.123058	23.024206	23.981993	24.152694	23.861953
	23.797671	23.751257	24.088800	75.135315	23.013803	23.978485	24.148355	23.853943
	23.793849	23.750368	24.079664	75.145717	23.010893	23.984746	24.153192	23.861075
	23.802259	23.747861	24.082886	75.133485	23.006230	23.986508	24.146107	23.866362
	23.796074	23.741675	24.076705	75.132866	23.008070	23.980554	24.144278	23.867053
	23.794714	23.750125	24.090417	75.129308	23.009693	23.989964	24.138291	23.865187
	23.798093	23.740161	24.080689	75.114682	23.014455	23.986238	24.140245	23.847433
	23.795200	23.758911	24.093928	75.117960	23.021429	23.983576	24.158063	23.859533
	23.791220	23.737149	24.082032	75.095972	23.011015	23.979597	24.139526	23.849005
	23.795397	23.744860	24.092257	75.091746	23.017265	24.000269	24.152498	23.871153
	23.791105	23.744500	24.086170	75.096402	23.013884	23.989335	24.140458	23.850625
	23.790275	23.729397	24.072453	75.102446	23.002721	23.975445	24.139569	23.843777
	23.792424	23.741562	24.074072	75.094157	23.006251	23.976677	24.150807	23.846772
	23.796131	23.738428	24.078270	75.103150	23.012031	23.976029	24.152714	23.855326
	23.804591	23.744364	24.088097	75.090882	23.015454	23.989298	24.141009	23.862407
	23.791202	23.740664	24.080505	75.062830	23.008242	23.970415	24.142351	23.847478
	23.787985	23.752680	24.084494	75.084089	23.020631	23.970865	24.150463	23.865450
	23.807156	23.754892	24.094265	75.108718	23.024221	23.993923	24.161148	23.866287
	23.787834	23.740719	24.092471	75.094016	23.014970	23.972089	24.149277	23.851887
	23.776677	23.736822	24.076665	75.105847	23.000121	23.974913	24.142635	23.852346
	23.789359	23.742461	24.088944	75.099953	23.017646	23.976363	24.140253	23.867609
	23.777431	23.744283	24.077937	75.100357	23.005239	23.979333	24.134515	23.843533
	23.784707	23.732912	24.085815	75.087569	22.996225	23.978128	24.145599	23.836289
	23.779197	23.727928	24.064112	75.098002	23.001498	23.968955	24.135581	23.847350
	23.783529	23.730789	24.072928	75.084817	23.014102	23.983366	24.133172	23.846085
	23.798024	23.737235	24.081660	75.092730	23.009335	23.971735	24.138925	23.854821
	23.784018	23.740191	24.084385	75.084405	23.008163	23.977668	24.141879	23.854798
	23.795578	23.751317	24.094586	75.108801	23.014691	23.987619	24.147269	23.854462
	23.789898	23.735926	24.071418	75.086147	23.005328	23.974152	24.133265	23.849158
	23.778200	23.729602	24.082279	75.091630	23.003943	23.964291	24.132902	23.850857
	23.782630	23.720799	24.078523	75.085320	23.004477	23.981780	24.152050	23.851224
	23.790546	23.746067	24.081781	75.088688	23.021130	23.990379	24.146834	23.861589
	23.801168	23.748118	24.092993	75.101546	23.018913	23.988167	24.155296	23.871661
	23.785980	23.748952	24.083747	75.084450	23.014032	23.979859	24.146510	23.850034
	23.781854	23.733356	24.075034	75.076555	23.008521	23.978484	24.138026	23.851860
	23.792994	23.749019	24.088166	75.099663	23.024501	23.980913	24.140850	23.862935
	23.790101	23.735770	24.079051	75.080194	23.015175	23.965877	24.136316	23.844419
	23.788572	23.743857	24.078885	75.074647	23.008821	23.976492	24.143480	23.844482
	23.787164	23.732964	24.086554	75.082427	23.005804	23.973252	24.149087	23.850780
	23.784354	23.736453	24.073777	75.079982	23.010566	23.972964	24.145244	23.853352
