LabVIEW Measurement									
Writer_Version	2								
Reader_Version	2								
Separator	Tab								
Decimal_Separator	.								
Multi_Headings	No								
X_Columns	No								
Time_Pref	Relative								
Operator	Standard								
Date	11/1/2018								
Time	15:24.1								
***End_of_Header***									
									
Channels	8								
Samples	1	1	1	1	1	1	1	1	
Date	11/1/2018	11/1/2018	11/1/2018	11/1/2018	11/1/2018	11/1/2018	11/1/2018	11/1/2018	
Time	15:24.1	15:24.1	15:24.1	15:24.1	15:24.1	15:24.1	15:24.1	15:24.1	
X_Dimension	Time	Time	Time	Time	Time	Time	Time	Time	
X0	0.00E+00	0.00E+00	0.00E+00	0.00E+00	0.00E+00	0.00E+00	0.00E+00	0.00E+00	
Delta_X	1	1	1	1	1	1	1	1	
***End_of_Header***									
X_Value	Temperature_1	Temperature_2	Temperature_3	Temperature_4	Temperature_5	Temperature_6	Temperature_7	Temperature_8	Comment
	24.752908	37.563653	24.680242	24.991059	125.67766	24.883736	25.100792	24.844481	
	24.757941	37.533541	24.680205	24.998111	125.680152	24.878933	25.089098	24.840557	
	24.745298	37.50419	24.683239	24.989025	125.673774	24.888477	25.105616	24.840388	
	24.73905	37.465314	24.673979	24.978399	125.667771	24.869424	25.075791	24.822897	
	24.744937	37.455063	24.675122	24.99669	125.67884	24.891089	25.089734	24.836619	
	24.745901	37.414929	24.669837	24.987521	125.672937	24.882447	25.086739	24.83408	
	24.743433	37.389347	24.671028	24.986654	125.663008	24.875635	25.078329	24.826809	
	24.745925	37.355929	24.672184	24.98598	125.675641	24.883844	25.079712	24.837113	
	24.732645	37.316935	24.66945	24.978446	125.672372	24.874684	25.079038	24.830492	
	24.748321	37.299186	24.681889	24.982189	125.665763	24.886468	25.08598	24.838124	
	24.728419	37.257983	24.668199	24.983598	125.661928	24.871374	25.07573	24.831071	
	24.744372	37.235256	24.670956	24.990697	125.672422	24.889152	25.079171	24.833826	
	24.736847	37.196828	24.660576	24.980324	125.663048	24.87271	25.061484	24.818647	
	24.746238	37.18486	24.676892	24.980167	125.680505	24.891475	25.076873	24.829926	
	24.743794	37.149022	24.667572	24.987315	125.684017	24.886287	25.072132	24.836619	
	24.720678	37.11473	24.657553	24.978217	125.66982	24.872326	25.060521	24.824316	
	24.724206	37.082044	24.662454	24.961165	125.653988	24.870364	25.053073	24.825098	
	24.718427	37.056128	24.670871	24.963174	125.652212	24.872362	25.054625	24.81613	
	24.729877	37.032418	24.669426	24.984138	125.665259	24.881293	25.059812	24.820861	
	24.733754	37.008355	24.670823	24.989192	125.663907	24.883568	25.068751	24.82546	
	24.730888	36.966224	24.680227	24.986015	125.669558	24.886878	25.064203	24.822282	
	24.727072	36.938917	24.651532	24.973344	125.655239	24.880547	25.043304	24.809377	
	24.738715	36.925803	24.671485	24.969505	125.664422	24.893101	25.065069	24.827494	
	24.74287	36.89341	24.673039	24.976545	125.658893	24.881704	25.056335	24.815096	
	24.711264	36.849707	24.662996	24.969253	125.661739	24.885327	25.041271	24.814434	
	24.739944	36.831929	24.688235	24.985329	125.678297	24.891357	25.056659	24.830745	
	24.721113	36.800693	24.658722	24.972983	125.672293	24.874819	25.046144	24.81565	
	24.724665	36.78222	24.663803	24.979204	125.682172	24.889804	25.052821	24.82782	
	24.720319	36.737744	24.665333	24.973188	125.677572	24.872196	25.053664	24.811051	
	24.735575	36.724718	24.675772	24.976305	125.694574	24.889047	25.062038	24.832238	
	24.722765	36.683714	24.65547	24.973621	125.684989	24.872811	25.037409	24.816288	
	24.712362	36.667998	24.668645	24.974669	125.689307	24.882765	25.048973	24.818708	
	24.729567	36.63594	24.67239	24.97864	125.69184	24.886472	25.044027	24.820393	
	24.717022	36.60367	24.667682	24.977136	125.685928	24.875532	25.032921	24.817517	
	24.735251	36.592685	24.661227	24.971143	125.678198	24.883921	25.04659	24.823872	
	24.716252	36.549026	24.66384	24.961865	125.675696	24.885739	25.045543	24.822825	
	24.71665	36.52951	24.657567	24.97846	125.678714	24.884764	25.038132	24.824559	
	24.722838	36.50507	24.673474	24.976294	125.686009	24.888207	25.038481	24.818962	
	24.706307	36.463836	24.657303	24.960362	125.667554	24.876713	25.033981	24.807827	
	24.719576	36.457044	24.669333	24.973299	125.673114	24.888147	25.040515	24.815279	
	24.699926	36.419508	24.657411	24.9639	125.672176	24.875365	25.029975	24.813425	
	24.700601	36.393452	24.656797	24.968088	125.680027	24.872609	25.035763	24.805721	
	24.706164	36.36207	24.65622	24.953334	125.680854	24.867421	25.022611	24.807888	
	24.691486	36.325844	24.638554	24.961976	125.68255	24.871502	25.01982	24.802808	
	24.693955	36.298925	24.645527	24.94059	125.685002	24.865508	25.014213	24.797198	
	24.706947	36.286488	24.655896	24.957355	125.691671	24.869805	25.018858	24.799787	
	24.69363	36.258402	24.652981	24.963817	125.69374	24.877304	25.018004	24.808081	
	24.698784	36.224003	24.650007	24.967019	125.691349	24.880398	25.020062	24.80305	
	24.700121	36.20672	24.66205	24.960304	125.685568	24.876932	25.024093	24.810285	
	24.692751	36.170152	24.654571	24.954888	125.678241	24.874596	25.020736	24.796633	
	24.698568	36.142448	24.647707	24.957175	125.673146	24.873778	25.011362	24.800751	
	24.699073	36.125174	24.657703	24.965334	125.691592	24.872683	25.019749	24.798392	
	24.67746	36.082285	24.641012	24.946139	125.675205	24.865714	25.003529	24.786738	
	24.684528	36.070042	24.646552	24.951904	125.674993	24.862031	25.00152	24.796851	
	24.672306	36.031077	24.641205	24.946561	125.673763	24.851415	25.009209	24.778468	
	24.685456	36.02155	24.655476	24.950075	125.678838	24.861129	25.012723	24.80074	
	24.682554	35.990181	24.645782	24.952507	125.670079	24.866461	25.006466	24.790821	
	24.677087	35.957761	24.63433	24.94655	125.667224	24.865113	24.99205	24.783718	
	24.679652	35.943174	24.646625	24.949005	125.665539	24.860588	25.007308	24.78137	
	24.669839	35.917658	24.649106	24.942795	125.655015	24.867244	24.99607	24.788883	
	24.664697	35.87741	24.627815	24.944613	125.648214	24.855244	24.996972	24.773774	
	24.682603	35.86335	24.638364	24.944637	125.657467	24.869712	25.007285	24.792326	
	24.677835	35.841536	24.635487	24.946562	125.668426	24.862887	24.996179	24.784417	
	24.652198	35.801235	24.636341	24.930953	125.66439	24.853498	24.992231	24.762626	
	24.66536	35.776158	24.630357	24.940521	125.648386	24.856135	24.987852	24.764192	
	24.65958	35.755188	24.634295	24.942399	125.65543	24.845784	24.988129	24.78231	
	24.65038	35.730414	24.625648	24.927812	125.656731	24.85191	24.986119	24.765431	
	24.664578	35.711384	24.630429	24.942194	125.651565	24.856268	24.987467	24.786223	
	24.653897	35.685138	24.629659	24.936623	125.644915	24.858398	25.002702	24.764866	
	24.666397	35.669106	24.640027	24.933951	125.647337	24.856256	24.989513	24.776375	
	24.651285	35.63084	24.630394	24.925238	125.623937	24.855787	24.986745	24.766287	
	24.65456	35.611722	24.637836	24.924901	125.638568	24.848998	24.982064	24.760917	
	24.651815	35.583799	24.621856	24.932941	125.646813	24.862035	24.990561	24.755236	
	24.630897	35.554673	24.624553	24.921916	125.630052	24.842041	24.965362	24.760449	
	24.649418	35.527477	24.623048	24.926815	125.644805	24.838827	24.982149	24.758486	
	24.631704	35.508167	24.614967	24.914166	125.634179	24.838274	24.965614	24.747891	
	24.658739	35.488445	24.621796	24.936997	125.632484	24.852032	24.978154	24.76547	
	24.647673	35.466155	24.625084	24.919246	125.64641	24.845773	24.982812	24.752973	
	24.644734	35.433266	24.612499	24.920846	125.640113	24.850841	24.97298	24.754574	
	24.633126	35.409078	24.611332	24.910761	125.629811	24.843583	24.965869	24.751577	
	24.650467	35.397642	24.630299	24.926287	125.632646	24.859087	24.974304	24.761389	
	24.63309	35.360544	24.607466	24.897522	125.626521	24.826851	24.962692	24.745882	
	24.63291	35.347518	24.616342	24.918055	125.633656	24.846112	24.978192	24.751782	
	24.643014	35.322029	24.610417	24.920366	125.633687	24.841803	24.969299	24.761414	
	24.638269	35.300945	24.617691	24.908198	125.626068	24.849182	24.968336	24.749699	
	24.639028	35.276267	24.609623	24.926661	125.61961	24.850398	24.961646	24.752613	
	24.632598	35.251729	24.612911	24.909366	125.618631	24.845571	24.970876	24.755443	
	24.637006	35.228156	24.614898	24.916841	125.625776	24.847004	24.958229	24.747822	
	24.620207	35.188971	24.607335	24.903108	125.620902	24.82701	24.950671	24.738889	
	24.641426	35.19339	24.62375	24.925001	125.648653	24.842731	24.970275	24.756443	
	24.638488	35.160435	24.616837	24.912605	125.626826	24.833391	24.964053	24.75548	
	24.621436	35.141606	24.617729	24.909837	125.631711	24.830526	24.960372	24.747221	
	24.633515	35.109414	24.612515	24.918118	125.631862	24.847631	24.963621	24.75093	
	24.621509	35.087791	24.613985	24.905638	125.640591	24.845236	24.955258	24.746452	
	24.636309	35.063349	24.616694	24.908346	125.638997	24.83693	24.951106	24.751219	
	24.626844	35.035254	24.617044	24.912354	125.642378	24.834102	24.944824	24.74219	
	24.622979	35.000343	24.609517	24.896142	125.647575	24.840759	24.943019	24.731462	
	24.619174	34.983135	24.608638	24.902124	125.649563	24.836498	24.947171	24.73676	
	24.616247	34.949105	24.597667	24.893675	125.645194	24.835403	24.935522	24.734256	
	24.621486	34.938379	24.611192	24.901246	125.647858	24.831262	24.939662	24.739542	
	24.619367	34.909651	24.608158	24.902558	125.651067	24.827086	24.941432	24.73262	
	24.634277	34.896459	24.610699	24.911043	125.655508	24.840616	24.949916	24.749114	
	24.623294	34.870865	24.601486	24.900921	125.656467	24.832383	24.935679	24.751341	
	24.627136	34.859311	24.615769	24.905134	125.654317	24.835308	24.944008	24.743203	
	24.629111	34.830307	24.613831	24.905712	125.660574	24.843687	24.940927	24.74035	
	24.623764	34.804226	24.603438	24.906302	125.653026	24.840858	24.936487	24.733849	
	24.617165	34.783533	24.60404	24.897071	125.654015	24.835863	24.935259	24.741543	
	24.625836	34.754796	24.604667	24.905015	125.663198	24.839727	24.941145	24.725012	
	24.618623	34.737166	24.601765	24.888851	125.657921	24.836406	24.932528	24.732405	
	24.622645	34.716304	24.598537	24.908722	125.65669	24.834479	24.939593	24.73261	
	24.621671	34.679934	24.598924	24.8915	125.647246	24.826415	24.922829	24.731852	
	24.621659	34.658881	24.60397	24.894714	125.64992	24.822972	24.940448	24.735296	
	24.618793	34.643406	24.607619	24.898818	125.655379	24.834059	24.930832	24.739859	
	24.610894	34.626987	24.60733	24.895557	125.663332	24.829137	24.921855	24.735224	
	24.609713	34.595976	24.598093	24.88564	125.645279	24.824298	24.914911	24.723702	
	24.62007	34.57945	24.603417	24.893476	125.65089	24.840368	24.915886	24.727652	
	24.623046	34.562121	24.602887	24.898206	125.653574	24.839454	24.935251	24.743135	
	24.610762	34.526906	24.586846	24.871655	125.629286	24.824431	24.921965	24.719321	
	24.611148	34.508537	24.60219	24.903455	125.643797	24.838539	24.919462	24.730314	
	24.610197	34.482828	24.603864	24.893008	125.641083	24.826382	24.906043	24.723981	
	24.61599	34.461366	24.5934	24.885065	125.61852	24.827141	24.91365	24.720153	
	24.606369	34.435524	24.591737	24.875628	125.610841	24.815008	24.911303	24.719406	
	24.601383	34.425766	24.58521	24.890144	125.609539	24.83038	24.906609	24.716999	
	24.601443	34.407216	24.592365	24.894093	125.609781	24.828382	24.910787	24.715001	
	24.598974	34.36832	24.593172	24.875919	125.614807	24.822712	24.902675	24.71352	
	24.599662	34.351986	24.592979	24.896308	125.619217	24.823857	24.905913	24.721106	
	24.604081	34.33027	24.603999	24.887654	125.607582	24.825987	24.911894	24.723887	
	24.609585	34.326411	24.603723	24.896754	125.606058	24.841094	24.917335	24.72933	
	24.591761	34.294082	24.592932	24.877966	125.603586	24.827396	24.900148	24.718084	
	24.591641	34.272907	24.592608	24.890906	125.590064	24.825217	24.908285	24.725767	
	24.583415	34.231709	24.577577	24.871081	125.583746	24.813794	24.902183	24.705936	
	24.581754	34.222549	24.590199	24.874548	125.5929	24.819223	24.899703	24.714894	
	24.579153	34.209422	24.587104	24.882204	125.601074	24.810448	24.897297	24.711343	
	24.585861	34.193048	24.589164	24.8742	125.607654	24.817611	24.893867	24.707912	
	24.585729	34.157865	24.580276	24.868061	125.603517	24.819537	24.904422	24.704745	
	24.57507	34.1396	24.597113	24.880544	125.608199	24.819405	24.888319	24.701446	
	24.583766	34.123944	24.58984	24.873503	125.61491	24.812543	24.900031	24.706299	
	24.570108	34.086182	24.579698	24.872058	125.605576	24.800722	24.879148	24.685637	
									
					125.652439				
