LabVIEW Measurement	
Writer_Version	2
Reader_Version	2
Separator	Tab
Decimal_Separator	.
Multi_Headings	No
X_Columns	No
Time_Pref	Relative
Operator	Standard
Date	2018/11/01
Time	15:22:07.5401825904846191406
***End_of_Header***	
	
Channels	8								
Samples	1	1	1	1	1	1	1	1	
Date	2018/11/01	2018/11/01	2018/11/01	2018/11/01	2018/11/01	2018/11/01	2018/11/01	2018/11/01	
Time	15:22:07.5401825904846191406	15:22:07.5401825904846191406	15:22:07.5401825904846191406	15:22:07.5401825904846191406	15:22:07.5401825904846191406	15:22:07.5401825904846191406	15:22:07.5401825904846191406	15:22:07.5401825904846191406	
X_Dimension	Time	Time	Time	Time	Time	Time	Time	Time	
X0	0.0000000000000000E+0	0.0000000000000000E+0	0.0000000000000000E+0	0.0000000000000000E+0	0.0000000000000000E+0	0.0000000000000000E+0	0.0000000000000000E+0	0.0000000000000000E+0	
Delta_X	1.000000	1.000000	1.000000	1.000000	1.000000	1.000000	1.000000	1.000000	
***End_of_Header***									
X_Value	Temperature_1	Temperature_2	Temperature_3	Temperature_4	Temperature_5	Temperature_6	Temperature_7	Temperature_8	Comment
	24.822710	44.736013	24.702180	25.071508	125.529861	24.859989	25.339120	24.907576
	24.830028	44.681660	24.694979	25.075743	125.541366	24.862504	25.340611	24.911583
	24.820734	44.623532	24.692547	25.070340	125.540669	24.861673	25.332927	24.902749
	24.818929	44.559478	24.696989	25.067693	125.552003	24.866729	25.335079	24.905360
	24.825225	44.503095	24.686321	25.062748	125.555939	24.861132	25.328537	24.909103
	24.830389	44.448393	24.694341	25.067332	125.547804	24.874528	25.325122	24.912088
	24.839730	44.398648	24.705467	25.074792	125.553910	24.866716	25.330522	24.918865
	24.834709	44.344595	24.703649	25.079376	125.554111	24.878849	25.334875	24.924593
	24.817279	44.264644	24.679915	25.069149	125.539115	24.859133	25.311859	24.898584
	24.826910	44.210981	24.704599	25.081241	125.550832	24.868534	25.319603	24.903820
	24.828330	44.165622	24.704299	25.071111	125.549147	24.872241	25.325471	24.906492
	24.835312	44.106556	24.698892	25.066851	125.534099	24.861841	25.313217	24.903603
	24.830304	44.050318	24.695520	25.065539	125.540255	24.869870	25.320360	24.902519
	24.832110	43.992570	24.697905	25.066093	125.542536	24.881052	25.325254	24.908562
	24.830666	43.939874	24.700289	25.065961	125.537490	24.860397	25.313013	24.905457
	24.835817	43.898334	24.695292	25.068969	125.550055	24.878127	25.315791	24.916012
	24.838791	43.837013	24.696267	25.061028	125.546220	24.871266	25.314023	24.902122
	24.846832	43.793937	24.706610	25.063819	125.557180	24.869473	25.321611	24.906744
	24.832230	43.749223	24.708849	25.055998	125.557977	24.867451	25.318135	24.894576
	24.831532	43.700892	24.702300	25.066827	125.565829	24.873385	25.307710	24.905637
	24.837780	43.641111	24.715195	25.079713	125.565890	24.875058	25.315791	24.922186
	24.841824	43.588993	24.709295	25.075874	125.566979	24.880246	25.316524	24.916288
	24.846915	43.558060	24.712149	25.071411	125.584095	24.883964	25.319374	24.920742
	24.845447	43.495922	24.698820	25.061978	125.573084	24.877693	25.307661	24.908790
	24.850791	43.455283	24.709439	25.068018	125.590604	24.882123	25.317125	24.912088
	24.846109	43.398545	24.710198	25.074034	125.591280	24.876297	25.308515	24.910559
	24.841919	43.346901	24.707333	25.073228	125.587001	24.881942	25.309081	24.913412
	24.857544	43.297337	24.713040	25.078702	125.587062	24.891848	25.307012	24.910885
	24.865669	43.248915	24.724743	25.089253	125.598092	24.900429	25.317558	24.927613
	24.854944	43.193383	24.703214	25.069570	125.590059	24.883302	25.297427	24.915927
	24.844026	43.141033	24.714280	25.071711	125.600080	24.875815	25.287230	24.910294
	24.850706	43.100587	24.714376	25.078665	125.601462	24.892786	25.304462	24.913592
	24.848154	43.048946	24.708114	25.074237	125.606800	24.885889	25.301636	24.923797
	24.855689	43.004074	24.721696	25.072493	125.609282	24.886562	25.298978	24.906960
	24.852415	42.960020	24.722635	25.077774	125.616124	24.890150	25.299002	24.916131
	24.841665	42.894607	24.703009	25.073479	125.609030	24.885347	25.289453	24.917094
	24.861068	42.848908	24.723526	25.079350	125.622037	24.894914	25.302405	24.927083
	24.856675	42.803403	24.713592	25.066681	125.627173	24.874742	25.299338	24.922184
	24.850319	42.750607	24.710739	25.079603	125.628747	24.889655	25.293975	24.912014
	24.865160	42.703526	24.722743	25.081997	125.640806	24.893060	25.287229	24.914410
	24.849416	42.648583	24.715157	25.080818	125.641219	24.881891	25.299073	24.914144
	24.850944	42.608735	24.712484	25.068774	125.633873	24.880675	25.288863	24.917875
	24.864895	42.570987	24.738756	25.078339	125.654196	24.901257	25.297510	24.927443
	24.859912	42.515182	24.717939	25.083826	125.657495	24.902905	25.289056	24.929044
	24.853014	42.464294	24.707944	25.071096	125.657656	24.886174	25.273133	24.911508
	24.868481	42.408988	24.711448	25.073225	125.651067	24.901641	25.278003	24.914095
	24.862114	42.373802	24.722549	25.074032	125.659917	24.902134	25.277438	24.922448
	24.869600	42.334026	24.730953	25.082201	125.662358	24.901845	25.283090	24.927419
	24.866988	42.287347	24.722368	25.080251	125.660935	24.903578	25.272002	24.917236
	24.865327	42.232312	24.719996	25.082910	125.671046	24.894141	25.266662	24.912807
	24.862930	42.191236	24.734155	25.079228	125.671338	24.895633	25.262753	24.923759
	24.855648	42.143510	24.721296	25.075980	125.668492	24.899099	25.266590	24.903588
	24.859151	42.102681	24.724510	25.076448	125.674880	24.894370	25.271171	24.922808
	24.861606	42.059049	24.731687	25.079733	125.672145	24.902084	25.277882	24.920377
	24.855984	42.011927	24.724498	25.072321	125.668391	24.886172	25.270473	24.920280
	24.851554	41.974610	24.720838	25.071864	125.684424	24.894320	25.256992	24.909990
	24.867190	41.928874	24.733853	25.067267	125.683152	24.904923	25.265193	24.912023
	24.859438	41.886179	24.724400	25.069938	125.673970	24.893742	25.270376	24.915380
	24.845017	41.829136	24.729145	25.073535	125.672426	24.892815	25.262547	24.911662
	24.848207	41.790782	24.722366	25.076591	125.668581	24.904008	25.265373	24.913804
	24.852997	41.748308	24.717044	25.075845	125.674897	24.899193	25.265769	24.914658
	24.847773	41.707959	24.729481	25.068614	125.678762	24.893740	25.269738	24.915199
	24.845293	41.666095	24.719306	25.072848	125.676108	24.901551	25.265059	24.909602
	24.841200	41.619134	24.721245	25.071585	125.678045	24.903404	25.263339	24.909253
	24.838515	41.574843	24.714056	25.062573	125.679053	24.882425	25.241534	24.897036
	24.852863	41.542913	24.732020	25.089438	125.679386	24.900888	25.263591	24.916365
	24.841704	41.495230	24.720184	25.074639	125.669073	24.892246	25.250169	24.904991
	24.834012	41.451231	24.727492	25.069141	125.666651	24.892101	25.260211	24.894689
	24.837875	41.407089	24.718185	25.069899	125.675258	24.896193	25.250914	24.896361
	24.841366	41.362209	24.724589	25.074013	125.671282	24.893737	25.260510	24.911224
	24.829822	41.318407	24.729826	25.073531	125.674067	24.905748	25.261628	24.914401
	24.833408	41.268515	24.726937	25.069500	125.671705	24.901102	25.248688	24.911284
	24.835815	41.220736	24.706106	25.058972	125.661452	24.894133	25.250960	24.899151
	24.838631	41.186712	24.715750	25.065866	125.669182	24.896949	25.252824	24.906276
	24.828423	41.143093	24.727368	25.071989	125.668868	24.906636	25.254146	24.912173
	24.825076	41.097758	24.703816	25.058056	125.654559	24.890484	25.234733	24.897320
	24.832755	41.062981	24.726187	25.070352	125.664064	24.911197	25.247482	24.910306
	24.818261	41.023019	24.725356	25.072036	125.660925	24.898078	25.246195	24.897127
	24.825797	40.982436	24.718625	25.065995	125.679129	24.903325	25.241984	24.907549
	24.826386	40.946300	24.724958	25.063179	125.678280	24.900255	25.245797	24.909535
	24.824483	40.898839	24.712037	25.051640	125.671701	24.896294	25.233119	24.892960
	24.827901	40.862534	24.711797	25.063972	125.677442	24.905200	25.243162	24.895464
	24.810542	40.823826	24.710676	25.056681	125.671135	24.900422	25.239757	24.890685
	24.819017	40.781130	24.716190	25.064477	125.668461	24.900662	25.236125	24.892766
	24.820629	40.742008	24.718080	25.059278	125.679781	24.893584	25.234585	24.907004
	24.822362	40.705830	24.718212	25.058038	125.672223	24.898747	25.240886	24.904163
	24.822205	40.667390	24.718753	25.070924	125.672092	24.906137	25.235942	24.907220
	24.829463	40.625334	24.727687	25.057448	125.662838	24.912479	25.234355	24.906088
	24.821951	40.571620	24.723436	25.054343	125.660950	24.901538	25.230337	24.899323
	24.813680	40.530419	24.712671	25.056160	125.660153	24.893726	25.221184	24.892222
	24.835949	40.500066	24.721352	25.072606	125.671343	24.908674	25.234425	24.907988
	24.825307	40.461539	24.712441	25.060959	125.662422	24.902836	25.223924	24.907313
	24.830110	40.422182	24.714801	25.063545	125.658779	24.894832	25.221711	24.895037
	24.829676	40.385282	24.719930	25.061584	125.662442	24.904460	25.224778	24.899020
	24.824632	40.338538	24.715582	25.056782	125.652461	24.902160	25.223863	24.896961
	24.853208	40.306284	24.734894	25.072423	125.658203	24.921357	25.229443	24.909405
	24.832287	40.254006	24.717749	25.059404	125.651210	24.896780	25.210030	24.888150
	24.825750	40.217058	24.721240	25.054892	125.650715	24.900077	25.219459	24.898958
	24.837655	40.185742	24.712932	25.070593	125.653600	24.909464	25.221901	24.907575
	24.834874	40.139959	24.706393	25.060630	125.657021	24.904854	25.205999	24.903097
	24.829781	40.102245	24.711618	25.052135	125.654285	24.904107	25.204820	24.896657
	24.841589	40.075541	24.731640	25.060713	125.653639	24.906309	25.220479	24.914842
	24.826746	40.034403	24.721671	25.056465	125.648482	24.893755	25.213719	24.901904
	24.849328	39.992843	24.723849	25.061386	125.663194	24.916791	25.212239	24.903853
	24.830284	39.954429	24.728136	25.054239	125.657583	24.903467	25.214693	24.892816
	24.850097	39.915009	24.731157	25.065717	125.666906	24.917331	25.210856	24.907271
	24.846593	39.863809	24.725690	25.041965	125.667804	24.903538	25.202194	24.899518
	24.836831	39.827907	24.717936	25.050447	125.661538	24.896750	25.195362	24.900686
	24.848374	39.790251	24.720271	25.053695	125.664887	24.908291	25.203408	24.896617
	24.829595	39.749895	24.710445	25.042505	125.679245	24.899348	25.194278	24.902346
	24.846471	39.715221	24.732563	25.058892	125.676137	24.907531	25.193748	24.904331
	24.844051	39.676962	24.724905	25.058326	125.682544	24.907627	25.202324	24.901935
	24.856557	39.639609	24.730081	25.051154	125.692452	24.908012	25.195840	24.908482
	24.842437	39.598576	24.720027	25.049794	125.696336	24.900982	25.193566	24.901861
	24.845373	39.555600	24.727648	25.066325	125.694196	24.913751	25.197294	24.905363
	24.839619	39.520225	24.735787	25.058913	125.687647	24.897707	25.184400	24.888573
	24.851980	39.489658	24.733558	25.048913	125.702610	24.902978	25.191086	24.899151
	24.844601	39.444407	24.719398	25.056024	125.698150	24.907262	25.185853	24.899632
	24.839652	39.407353	24.726959	25.061750	125.697069	24.905059	25.175580	24.894841
	24.838580	39.372749	24.724466	25.047143	125.694637	24.906959	25.193659	24.890749
